Counter:,Time:,Y:,F3:,F4:,P7:,FC6:,F7:,F8:,T7:,P8:,FC5:,AF4:,Unknown:,T8:,X:,O2:,O1:,AF3:
1,0.020512859988590187,0,0,0,0,0,0,0,0,0,0,0,0,0,0,0,0,0
2,0.036576405977236826,6,7733,6314,3858,1141,-3845,-708,2531,3209,1171,-2009,0,-4,48,-7885,7700,-5380
3,0.05228115011602258,-76,4521,-4531,-5331,-2731,-7521,8012,-5931,-7405,5819,-2870,235,1745,24,5197,6786,6432
4,0.0674859665283633,-76,4521,-4531,-5331,-2731,-7521,8012,-5931,-7405,5819,-2870,235,1745,24,5197,6786,6432
5,0.08543076321729365,45,-7450,6746,5735,-4512,2255,3938,58,-4474,7566,4253,235,3167,126,6173,2066,-1172
6,0.1013044307538089,45,-7450,6746,5735,-4512,2255,3938,58,-4474,7566,4253,235,3167,126,6173,2066,-1172
7,0.11925307633028245,119,-1719,2435,3096,1647,-1596,2236,6271,-7051,3765,-6545,235,7413,141,-4109,-6765,3526
8,0.13639302786851173,112,2983,-3916,7364,-6100,-810,2594,-5381,-5597,2478,1047,82,3611,-31,1505,-3848,-5954
9,0.1524963456951048,-4,2134,-8175,3995,-5221,-5906,3600,-6502,-774,-139,-7646,251,-7312,-62,7795,4266,5242
10,0.16803986421124747,-4,2134,-8175,3995,-5221,-5906,3600,-6502,-774,-139,-7646,251,-7312,-62,7795,4266,5242
11,0.1840503810826322,-78,-793,-7315,-4811,7223,-1341,4514,4093,7319,-4628,8030,251,-5412,-57,-199,-7823,562
12,0.20284620957278204,-84,-1636,-3955,6855,-1336,-4785,-951,-156,-3073,1181,3792,53,-2802,94,-8091,-5109,-1333
13,0.2198112505548813,-88,-7747,-1734,7551,24,6876,-2323,2961,2171,5659,7307,108,3022,126,-6964,-6146,3757
14,0.24012225777453902,-88,-7747,-1734,7551,24,6876,-2323,2961,2171,5659,7307,108,3022,126,-6964,-6146,3757
15,0.2582881516701178,-88,-7747,-1734,7551,24,6876,-2323,2961,2171,5659,7307,108,3022,126,-6964,-6146,3757
16,0.2762393631716202,-88,-7747,-1734,7551,24,6876,-2323,2961,2171,5659,7307,108,3022,126,-6964,-6146,3757
17,0.2935319872490632,-81,-2659,4683,1869,-63,-6002,-3537,562,1947,-7372,-7678,108,-4296,42,7879,-2492,3137
18,0.3126062186048381,-81,-2659,4683,1869,-63,-6002,-3537,562,1947,-7372,-7678,108,-4296,42,7879,-2492,3137
19,0.32930825227148514,-50,1181,499,5316,8109,1569,5340,2430,2451,-335,-5939,36,570,128,-2751,-7811,-6880
20,0.3456147058295251,-50,1181,499,5316,8109,1569,5340,2430,2451,-335,-5939,36,570,128,-2751,-7811,-6880
21,0.3625309942360771,-50,1181,499,5316,8109,1569,5340,2430,2451,-335,-5939,36,570,128,-2751,-7811,-6880
22,0.37782390740774,-46,-472,7046,2683,2761,4060,6927,-7340,-387,-6449,4964,59,-3577,97,-2321,7286,-4972
23,0.39414618417012426,47,-8075,6690,6378,7863,-1826,6221,-1000,-3811,400,-4533,243,680,90,574,6832,4203
24,0.4094061679705842,47,-8075,6690,6378,7863,-1826,6221,-1000,-3811,400,-4533,243,680,90,574,6832,4203
25,0.42810363600129664,111,582,-6584,8031,-5385,2143,5410,2984,7075,-1169,-5220,243,3546,79,8062,3239,1282
26,0.44545912524194536,111,582,-6584,8031,-5385,2143,5410,2984,7075,-1169,-5220,243,3546,79,8062,3239,1282
27,0.4623010018226621,111,582,-6584,8031,-5385,2143,5410,2984,7075,-1169,-5220,243,3546,79,8062,3239,1282
28,0.47971422437645883,-68,5185,207,-429,1528,-4727,-1213,-2892,-6208,-4888,7960,110,6012,37,-508,1419,2642
29,0.4984574514035182,-60,3679,2921,3730,7423,-6629,-5349,-1982,5135,6037,4641,81,1820,94,3102,4281,-3799
30,0.5173456531947049,-39,1554,-1178,4770,399,1998,-923,-876,-71,-5998,5779,48,-1620,145,6282,-6688,-4773
31,0.5353494661592978,-39,1554,-1178,4770,399,1998,-923,-876,-71,-5998,5779,48,-1620,145,6282,-6688,-4773
32,0.5509314735508725,-7,-3994,4633,835,7967,2282,1498,5333,7070,2429,7694,53,-7215,30,-788,4705,12
33,0.5687193211588744,-32,7264,-1564,-5343,1248,2317,5215,-4752,-2332,4843,4636,53,-3744,-57,6441,-2208,-809
34,0.5843137305214217,-57,-7996,3086,-2206,7876,-3411,-4466,7923,5196,516,2884,242,7109,47,-61,3285,-1822
35,0.6012945947078652,-57,-7996,3086,-2206,7876,-3411,-4466,7923,5196,516,2884,242,7109,47,-61,3285,-1822
36,0.6187950587126412,132,-7218,3466,-8125,139,-6239,-698,4030,-7492,7896,5136,228,-7811,66,3360,-2390,-6176
37,0.6362741400088439,80,2237,5866,-6321,-2230,-6742,8110,-3610,447,5240,-5467,102,-5046,122,7407,8154,-5178
38,0.6550443092487057,-71,-4284,4029,-1807,7723,-1947,-187,-4433,1620,4922,2601,244,-6600,-105,2546,3613,-4170
39,0.6732679364574325,100,5061,5326,1280,4843,5625,-1323,-6278,6749,3937,-3217,244,-1853,33,-1257,5955,1641
40,0.691380373581578,-42,1403,-37,2089,6064,-848,-1325,-1434,1417,1868,-6806,105,6025,-86,-3923,6997,-2193
41,0.708563090536954,-42,1403,-37,2089,6064,-848,-1325,-1434,1417,1868,-6806,105,6025,-86,-3923,6997,-2193
42,0.7284331863058292,-70,-5612,-2101,4597,2468,-6436,2779,-3623,-5905,1063,7496,105,-5870,1,7987,-1449,4153
43,0.7458314409636246,-29,-2009,2492,2370,3570,2221,3987,5340,-6054,-674,-4817,240,7710,-51,7226,3857,897
44,0.7628272730460695,-8,-1829,790,-4464,7374,-412,-5923,2754,5099,-2991,-7374,126,-47,53,5657,7939,7755
45,0.7785679401352584,132,1279,7876,1797,3187,-6147,-2497,-664,4287,3532,-7442,101,-1745,94,5732,-1018,-6912
46,0.7936282094376433,-8,1461,-699,946,6092,377,-234,-4590,6750,-5021,5547,101,3111,-50,-553,-7783,-2626
47,0.8098906146160222,135,-7103,4166,-2709,-482,-6519,7504,1467,-6777,7511,-516,84,7084,11,-1714,-4053,235
48,0.829621295124999,9,1457,-6388,-5401,-2870,-5720,713,-2113,6464,-7544,-2731,38,-5905,142,-1223,-1142,2009
49,0.8464811331809173,-20,-5920,-6837,2883,-733,6263,-7342,-5000,3128,7494,4920,247,-1732,108,4228,-1401,-6370
50,0.8650109607764147,70,-8114,1352,-917,-6122,5979,-2509,-1519,2355,3600,-805,97,6202,61,431,-4211,7790
51,0.8823095720122582,70,-8114,1352,-917,-6122,5979,-2509,-1519,2355,3600,-805,97,6202,61,431,-4211,7790
52,0.8998040488586337,52,5804,3545,-7223,6806,3371,-4216,4901,-1954,-3344,-4160,91,6673,107,-7923,2889,1501
53,0.9193705101657673,52,5804,3545,-7223,6806,3371,-4216,4901,-1954,-3344,-4160,91,6673,107,-7923,2889,1501
54,0.9362034060088832,37,3226,2713,-5987,-3001,-6493,-2743,-5656,-2177,6824,-5993,89,-423,-98,5685,-1468,3835
55,0.951830317088462,37,3226,2713,-5987,-3001,-6493,-2743,-5656,-2177,6824,-5993,89,-423,-98,5685,-1468,3835
56,0.9680016319283183,-22,2598,-3465,-1845,6612,-2095,-3382,-1531,-7307,6778,-2443,98,1479,-94,3492,8066,-4811
57,0.9839565537574123,-22,2598,-3465,-1845,6612,-2095,-3382,-1531,-7307,6778,-2443,98,1479,-94,3492,8066,-4811
58,1.001773481849074,12,-5446,-1455,-6401,1891,-6128,-958,-1243,657,2078,-7664,86,-4318,-74,-7491,139,-1209
59,1.0246833434687372,-105,313,-5780,4980,4621,-1875,7194,-6456,5832,3888,3460,41,-2069,128,-4699,-3783,1949
60,1.0474003330570687,-79,5322,-7802,8029,-5875,604,-4524,7847,-6785,-4160,5738,20,4412,-36,2319,-4902,4969
61,1.0797733261829556,-57,2895,5846,6879,2373,-4230,7752,-3017,-5119,5415,-6135,35,979,27,6972,3399,6158
62,1.102856387742063,87,-3819,-3947,1214,5822,6517,6628,3138,-6987,-2915,-448,248,-5885,38,5243,-4918,-78
63,1.1205073860151955,48,2648,4708,-3127,-5993,-2263,4658,-6447,-5443,1633,-1942,43,3111,25,-1649,-6075,-5237
64,1.136968222729135,-40,-5733,-3991,-5121,2163,5918,-4311,6284,-3602,-4941,7011,34,-1944,25,5389,-4056,-3874
65,1.154455857108767,-35,-2271,1575,2872,-5416,2735,2453,-1159,5671,2580,-2157,34,2853,77,-3579,-1840,-978
66,1.1713276694814865,98,7054,-5817,-6337,-7771,3358,4411,-3326,-2729,6660,2671,54,527,-102,1263,2073,-4052
67,1.1867270685418447,132,-1802,-8077,-6517,-1418,-4944,6843,-119,5575,-5072,-2119,127,-3803,36,4876,5313,-696
68,1.2026982412294545,132,-1802,-8077,-6517,-1418,-4944,6843,-119,5575,-5072,-2119,127,-3803,36,4876,5313,-696
69,1.2214889378695466,-55,7153,5329,6136,4500,2874,2209,-808,-2280,-4957,-1004,92,317,68,-343,-7693,-4672
70,1.239354190882584,46,-6647,-3616,3271,1903,3269,213,-7236,-4154,3691,-472,28,1282,147,6906,-1762,6097
71,1.2577065419969227,-67,-1762,2905,2262,-4806,3828,-5437,-6314,7788,1940,-1786,28,5935,4,5951,3909,6975
72,1.2754268202458328,-67,-1762,2905,2262,-4806,3828,-5437,-6314,7788,1940,-1786,28,5935,4,5951,3909,6975
73,1.2922960666935233,-67,-1762,2905,2262,-4806,3828,-5437,-6314,7788,1940,-1786,28,5935,4,5951,3909,6975
74,1.309716559368235,83,-207,2558,-2546,-4466,7252,4759,-8172,3472,-91,-7633,127,-3895,28,3852,-477,2080
75,1.3273397601202221,97,7023,830,7785,-4748,-77,855,5712,2534,-2201,6046,27,-7306,119,2034,-773,-6934
76,1.3435358789020235,-55,4349,5733,-722,7470,-3172,1948,1747,5915,-3731,-4470,27,5486,80,8134,-6958,-5646
77,1.3596836727624493,2,-7153,3922,-4799,-4211,1707,3602,-2032,7746,2038,4683,25,2043,-16,72,1973,2281
78,1.3768766534179404,-35,951,-6449,3303,-5406,-4129,-3432,-3132,4411,-4501,-3820,19,2126,-39,-7626,-5222,-3048
79,1.392858517459837,46,-5785,-3320,1705,507,-2528,5811,-4627,-1985,6298,6150,28,811,26,-765,-4978,4549
80,1.4087753780676704,-58,1573,6892,7660,-2732,4058,7696,-7327,-7083,-6842,-2394,244,-6137,60,5369,362,-7038
81,1.4245288747820033,-58,1573,6892,7660,-2732,4058,7696,-7327,-7083,-6842,-2394,244,-6137,60,5369,362,-7038
82,1.441982296827918,-58,1573,6892,7660,-2732,4058,7696,-7327,-7083,-6842,-2394,244,-6137,60,5369,362,-7038
83,1.4588571027798376,-58,1573,6892,7660,-2732,4058,7696,-7327,-7083,-6842,-2394,244,-6137,60,5369,362,-7038
84,1.4768254204481988,-10,4621,-7615,-17,3224,-8132,6780,-7210,-872,5721,378,244,1943,61,15,-2832,-8058
85,1.4949254556013716,-16,1889,1244,-5462,-3096,1393,5832,-5824,-5440,8089,-3684,244,-974,-48,4820,-7903,-4562
86,1.5124259196061476,91,-1164,4251,3129,6859,1463,8006,948,-7818,7565,1320,31,5649,79,-3612,-7614,4224
87,1.5392907270035383,-76,4974,7153,5553,-5088,-1507,-3221,1626,-2419,-4625,1824,50,2996,63,2153,1689,5347
88,1.555433816668078,44,6857,-61,2107,-7543,-81,3448,-6543,5118,5947,2115,90,165,80,-8110,-5477,-6963
89,1.573121165545785,-77,-2750,-2478,-6696,-2189,-6685,1930,5751,-4964,-5057,-2473,28,716,121,8040,4883,6217
90,1.588883642997719,60,1514,2315,-133,-5091,7554,-626,5097,4169,5308,-6285,28,4429,-11,2629,-3945,-6851
91,1.6044181807762607,60,1514,2315,-133,-5091,7554,-626,5097,4169,5308,-6285,28,4429,-11,2629,-3945,-6851
92,1.6202777357251177,-23,3587,-1290,6720,1254,2511,1437,6485,5660,180,-2603,22,-7572,67,-6848,3533,6784
93,1.638018541374258,96,6754,-1976,1109,-8143,4097,-2518,-5426,2068,6722,-2393,122,-6351,105,-5730,5206,2734
94,1.6555630537586952,96,6754,-1976,1109,-8143,4097,-2518,-5426,2068,6722,-2393,122,-6351,105,-5730,5206,2734
95,1.6747861087661406,37,-1497,-7144,2795,-5305,-2577,6627,6621,-1967,-6050,-1874,51,5820,12,7657,-3569,4427
96,1.6923165085629195,66,-6404,-5393,-786,-3682,5619,4412,2350,-1790,-399,-4933,49,7700,126,260,285,-1540
97,1.7106419174644556,79,2316,-3699,4725,5821,6472,5887,-1064,8130,-6675,5672,49,6270,148,-428,-6839,7492
98,1.730786139557241,143,-4231,7219,-3106,-5195,6841,-5442,3362,-6276,2151,972,124,5136,-78,-1505,-7970,-1473
99,1.7486270162825048,25,525,-3230,910,5899,-2176,1765,-751,-1389,2087,-7773,39,-1169,18,-6884,-7669,1732
100,1.764620426987031,-66,-5515,-217,7887,7497,251,3321,-7573,4080,60,-3710,39,-5537,84,3865,3303,1750
101,1.7804915285985174,121,-2283,-6789,5322,-3467,-7297,7031,4003,8002,-7537,5483,114,7298,-59,-7581,7035,7985
102,1.79549577520444,108,555,-7581,3645,2385,4407,-3016,-409,-6128,62,5855,124,-1423,-23,-4352,2585,829
103,1.811133805292477,108,555,-7581,3645,2385,4407,-3016,-409,-6128,62,5855,124,-1423,-23,-4352,2585,829
104,1.829070904206321,108,5545,-1920,-6381,918,-1125,-8118,-989,270,3281,-4099,34,5140,91,-905,4068,-4629
105,1.843886982976798,108,5545,-1920,-6381,918,-1125,-8118,-989,270,3281,-4099,34,5140,91,-905,4068,-4629
106,1.8627490978635253,20,4280,729,1087,2253,5554,6800,8094,4379,1374,2799,52,-1992,41,-6640,3724,-3557
107,1.8798364479386642,148,-5097,-7817,2169,-2868,7499,5150,3216,-1115,653,4235,44,4328,88,1808,-532,1674
108,1.8964059088121563,76,1784,5199,8009,598,6180,-2610,2283,-1957,4818,-449,17,5283,-21,627,-6518,-5585
109,1.9141894798784436,76,1784,5199,8009,598,6180,-2610,2283,-1957,4818,-449,17,5283,-21,627,-6518,-5585
110,1.9315193098688042,-55,743,5473,189,-6337,6348,-300,-1459,5927,4548,-3341,240,-7418,47,6235,4683,6948
111,1.948802525554475,-55,743,5473,189,-6337,6348,-300,-1459,5927,4548,-3341,240,-7418,47,6235,4683,6948
112,1.9657620070323452,49,712,-6241,-3822,-7202,2621,8093,-7973,3654,-1417,-6727,31,-3705,99,-1852,4850,7781
113,1.9821099430450175,17,-7873,-6287,1443,5290,-6622,-1739,7588,3307,-4576,3877,108,-7134,139,-5545,5661,2000
114,1.9984531748618035,17,-7873,-6287,1443,5290,-6622,-1739,7588,3307,-4576,3877,108,-7134,139,-5545,5661,2000
115,2.014286642906201,-55,6137,-602,-8162,453,-504,-6594,1523,5572,710,-1164,28,4117,115,2222,-1441,-955
116,2.0363279389036144,57,813,-7266,2995,-5014,-7817,3729,1300,-6542,6609,8167,103,-949,-77,7834,3028,2738
117,2.0518641872988423,150,4167,-3076,-2731,-1406,-895,609,-4505,1847,605,8026,103,6365,34,-6334,3968,-2302
118,2.071975907674596,-70,5510,1773,1224,-2544,4308,-4215,-1888,-957,-3996,-6669,29,1726,-33,3399,-7069,2593
119,2.0894297573746825,-5,-7806,2252,-3552,7901,-3143,-1584,-6681,2711,-7917,-2488,250,3764,-70,-5231,-5243,3445
120,2.1073788306053274,-5,-7806,2252,-3552,7901,-3143,-1584,-6681,2711,-7917,-2488,250,3764,-70,-5231,-5243,3445
121,2.12618706106645,-5,-7806,2252,-3552,7901,-3143,-1584,-6681,2711,-7917,-2488,250,3764,-70,-5231,-5243,3445
122,2.1431974333907244,-5,-7806,2252,-3552,7901,-3143,-1584,-6681,2711,-7917,-2488,250,3764,-70,-5231,-5243,3445
123,2.162142085532545,112,-6325,2868,2038,-3739,-7641,-2730,7643,-888,1710,-2294,61,1239,31,-2745,6183,-5394
124,2.1804405522212784,-46,2422,8039,-102,-4786,-4038,5792,-3774,-930,424,-7452,108,6204,24,-7668,6337,-1267
125,2.1959733793831346,-46,2422,8039,-102,-4786,-4038,5792,-3774,-930,424,-7452,108,6204,24,-7668,6337,-1267
126,2.211493804574018,-51,4232,1489,-3510,-6322,3910,-7488,4220,2839,-4002,-5907,102,-4982,85,-7320,-724,-4247
127,2.226962911264325,-51,4232,1489,-3510,-6322,3910,-7488,4220,2839,-4002,-5907,102,-4982,85,-7320,-724,-4247
128,2.244574565353683,94,-3619,5666,5082,-1771,1510,4668,-400,4230,-2889,4912,93,1367,142,-2291,-6209,-5706
129,2.2595304870382296,94,-3619,5666,5082,-1771,1510,4668,-400,4230,-2889,4912,93,1367,142,-2291,-6209,-5706
130,2.2796375032180975,94,-3619,5666,5082,-1771,1510,4668,-400,4230,-2889,4912,93,1367,142,-2291,-6209,-5706
131,2.2962505848170793,50,-4023,4890,6512,1170,-2379,-806,2729,3040,-5358,-7327,83,-5350,124,7798,-4622,-2287
132,2.313334086004675,50,-4023,4890,6512,1170,-2379,-806,2729,3040,-5358,-7327,83,-5350,124,7798,-4622,-2287
133,2.3315333369256286,107,6951,-683,-4322,6460,7931,-649,-4727,2437,7404,2210,83,2943,-17,-2172,-2101,4988
134,2.3502761362985165,-86,460,7435,-7445,-6232,-1683,2895,-3880,-7541,6834,-7016,83,3137,-4,3334,3378,3369
135,2.3678390378123266,100,-4807,1979,4832,-6147,6330,5392,-2435,-8121,2889,-7730,241,8110,122,-1668,-8153,7056
136,2.3837127053488416,100,-4807,1979,4832,-6147,6330,5392,-2435,-8121,2889,-7730,241,8110,122,-1668,-8153,7056
137,2.4001701208294097,100,-4807,1979,4832,-6147,6330,5392,-2435,-8121,2889,-7730,241,8110,122,-1668,-8153,7056
138,2.417540150311888,100,-4807,1979,4832,-6147,6330,5392,-2435,-8121,2889,-7730,241,8110,122,-1668,-8153,7056
139,2.4337324202061463,35,-1122,3899,1003,-5529,-4008,2467,-4684,4248,-4067,8169,17,-5042,124,-660,-5310,-7629
140,2.449517563329168,35,-1122,3899,1003,-5529,-4008,2467,-4684,4248,-4067,8169,17,-5042,124,-660,-5310,-7629
141,2.4661597254118095,35,-1122,3899,1003,-5529,-4008,2467,-4684,4248,-4067,8169,17,-5042,124,-660,-5310,-7629
142,2.484505661713576,35,-1122,3899,1003,-5529,-4008,2467,-4684,4248,-4067,8169,17,-5042,124,-660,-5310,-7629
143,2.501637915476719,35,-1122,3899,1003,-5529,-4008,2467,-4684,4248,-4067,8169,17,-5042,124,-660,-5310,-7629
144,2.518664111005338,35,-1122,3899,1003,-5529,-4008,2467,-4684,4248,-4067,8169,17,-5042,124,-660,-5310,-7629
145,2.5376271522765315,78,634,6820,4589,-7963,3582,1803,-2952,3660,5926,-289,112,4653,119,-3067,243,-516
146,2.5620218291795283,72,-784,-3211,-1071,7237,1250,731,4788,-969,3934,2131,118,602,-26,4028,-5584,660
147,2.5788474549017293,132,-591,5578,-5261,7553,-4194,2396,-938,-1562,-4446,-5794,232,4951,46,-1360,205,6247
148,2.5953861246748757,132,-591,5578,-5261,7553,-4194,2396,-938,-1562,-4446,-5794,232,4951,46,-1360,205,6247
149,2.6109078328282735,98,5687,-6823,-3609,7078,6309,-7190,-2888,522,-1957,-3130,98,4783,137,-3587,7437,-266
150,2.626734458405928,98,5687,-6823,-3609,7078,6309,-7190,-2888,522,-1957,-3130,98,4783,137,-3587,7437,-266
151,2.6435716307907584,20,-5940,2353,3666,7102,1245,-5926,-6065,293,3164,2005,112,5622,-106,636,4315,-7393
152,2.659857984602739,-14,-3984,-4133,3260,-2340,-3367,-1156,5244,212,-4993,3559,60,5477,12,-4682,-5424,-7397
153,2.6756769124053066,33,318,-3423,-6199,3721,7654,307,-3515,4395,1062,-1410,245,3897,80,-4496,8027,-1781
154,2.6909244942347943,33,5409,397,-599,796,-1596,5353,336,4023,2012,-1082,245,5040,139,3882,7824,5528
155,2.709931156231477,-22,-6917,6857,6325,-5009,4291,1665,-542,-3156,-3156,-3162,245,-5763,104,-7420,7453,1414
156,2.7305120132333305,-93,-3752,5691,-6253,724,-3214,6575,697,6365,1666,-4182,245,7016,132,4470,3332,5851
157,2.7477494699226543,-4,4112,1023,-1271,-213,-1694,562,-3041,6348,6402,-7227,87,2551,5,-7963,2853,-6044
158,2.7683080889075917,-4,4112,1023,-1271,-213,-1694,562,-3041,6348,6402,-7227,87,2551,5,-7963,2853,-6044
159,2.786893939199551,-4,4112,1023,-1271,-213,-1694,562,-3041,6348,6402,-7227,87,2551,5,-7963,2853,-6044
160,2.8056854911479863,-97,-4404,5542,3501,4166,-1974,-5267,-7318,-319,5828,8176,87,-4985,100,-5042,-6066,-2854
161,2.8223746951894895,-97,-4404,5542,3501,4166,-1974,-5267,-7318,-319,5828,8176,87,-4985,100,-5042,-6066,-2854
162,2.8387405926773632,94,-1903,-2365,-6389,-1516,1776,-6002,2733,-5696,-4496,-15,255,-3853,111,-6503,4413,5719
163,2.854791736695037,54,3093,-5512,614,2592,-7757,5221,-7669,-6396,5534,6002,28,-4651,-43,-6371,-3592,-6190
164,2.8705114487298244,52,6301,1863,5055,-812,2722,-6905,-5328,-5761,1022,-878,105,6784,106,1483,5800,450
165,2.8862824792651876,52,6301,1863,5055,-812,2722,-6905,-5328,-5761,1022,-878,105,6784,106,1483,5800,450
166,2.9017006951090902,52,6301,1863,5055,-812,2722,-6905,-5328,-5761,1022,-878,105,6784,106,1483,5800,450
167,2.918214560940292,98,-4496,-3388,3644,941,-532,4688,8087,4227,-2645,-7800,24,2886,92,-794,774,7662
168,2.9369428200713497,98,-4496,-3388,3644,941,-532,4688,8087,4227,-2645,-7800,24,2886,92,-794,774,7662
169,2.953801802818925,82,2838,4047,-2749,4452,-5785,6203,7947,-6155,7689,-6556,227,-7519,-71,6291,-5718,7555
170,2.971949307585131,51,-4415,2913,-1392,4954,-811,-7586,-1386,3791,-6908,7370,226,-1025,-37,6848,-4873,4380
171,2.9892641696794904,89,-5456,3322,3988,364,-1478,6767,-4415,-2587,4803,-71,28,1016,-7,4013,-250,-8083
172,3.006588867819793,89,-5456,3322,3988,364,-1478,6767,-4415,-2587,4803,-71,28,1016,-7,4013,-250,-8083
173,3.0230869104466507,89,-5456,3322,3988,364,-1478,6767,-4415,-2587,4803,-71,28,1016,-7,4013,-250,-8083
174,3.0403089715858016,89,-5456,3322,3988,364,-1478,6767,-4415,-2587,4803,-71,28,1016,-7,4013,-250,-8083
175,3.0644500495651186,15,-7669,-3564,999,-3364,5874,-7602,-3982,-3894,-4586,5995,60,5911,3,-7410,-8040,-5685
176,3.08102506994284,15,-7669,-3564,999,-3364,5874,-7602,-3982,-3894,-4586,5995,60,5911,3,-7410,-8040,-5685
177,3.097207076136983,-27,7106,-6107,-1371,-8051,-8029,3877,-2224,5252,5184,1867,60,-4249,-27,2103,-6977,-4357
178,3.1125252209047622,-27,7106,-6107,-1371,-8051,-8029,3877,-2224,5252,5184,1867,60,-4249,-27,2103,-6977,-4357
179,3.1295745097586405,51,5067,2018,-6453,6048,-3473,-3390,-2059,7024,249,-2997,91,8163,-73,7152,-5232,4985
180,3.1459416902090287,60,-731,-8161,3274,4846,-3459,5323,4005,-3112,3204,1512,91,-4357,85,6210,860,4471
181,3.163068812122114,60,-731,-8161,3274,4846,-3459,5323,4005,-3112,3204,1512,91,-4357,85,6210,860,4471
182,3.181315960310272,84,801,4709,-4334,-4407,-6112,-6833,3131,555,7842,-4633,252,-2167,-18,480,1925,4241
183,3.1974034549325205,101,5277,4989,1862,4903,3598,-2189,5138,-2591,-4685,-6027,84,973,-10,3780,5558,-4405
184,3.214959941633759,81,-536,1380,-6490,-1679,320,-3024,-3567,-5043,-7983,-6190,227,6633,-37,5783,-7895,-5756
185,3.233098893316535,64,4716,4345,-4492,-1161,2202,3182,-1324,2467,-4276,7855,30,8141,-4,-6304,-6141,2022
186,3.2499138276844493,24,-3246,-6921,866,4480,3268,4433,-5960,2325,-77,5338,124,2719,-24,5788,-5812,-3376
187,3.2653927704207004,-58,1908,6906,-5647,-5059,7207,2558,-278,-2794,4530,2195,59,7074,-64,1449,5984,3459
188,3.2814439144383747,-95,7091,5541,-1420,471,1456,4381,-6155,-1336,6008,2426,99,2486,39,5550,-5835,-266
189,3.2968830853366793,77,5874,-3485,6960,-6387,-4246,2156,5376,-4049,-878,5183,17,709,95,2675,7543,5287
190,3.3129290975042958,-42,1028,2584,-1647,2004,3906,5342,3686,2289,5296,1089,122,7542,81,-2546,-873,1164
191,3.3283216540979104,-93,1245,-3910,7299,-4503,7483,-1946,-5057,-7388,4103,5129,232,-2265,-102,-155,1215,1850
192,3.347957823034993,-93,1245,-3910,7299,-4503,7483,-1946,-5057,-7388,4103,5129,232,-2265,-102,-155,1215,1850
193,3.363879815492884,64,1700,7639,4811,-4529,-1569,1708,-3351,2998,-3239,-732,103,-409,16,-875,-992,4604
194,3.3809855546973964,64,1700,7639,4811,-4529,-1569,1708,-3351,2998,-3239,-732,103,-409,16,-875,-992,4604
195,3.397218879392115,-24,1817,-3938,6138,-3473,8031,-3163,-1540,8062,-4803,-7636,111,-1689,-62,139,-4092,1243
196,3.413877719987444,-24,1817,-3938,6138,-3473,8031,-3163,-1540,8062,-4803,-7636,111,-1689,-62,139,-4092,1243
197,3.433447174873778,-90,1020,3358,5921,-3933,-5242,5281,6421,3420,1408,7853,34,-4016,127,6511,7646,-2656
198,3.450042294997558,-90,1020,3358,5921,-3933,-5242,5281,6421,3420,1408,7853,34,-4016,127,6511,7646,-2656
199,3.467548746160735,57,6674,-510,3904,-1682,3012,-2188,1613,500,5209,-1064,38,5436,114,5361,5982,-4983
200,3.482773234664963,99,2442,5216,5616,5318,-1209,-7211,-5739,7326,2836,-2922,86,-5850,30,2566,-1716,4561
201,3.497980189348161,99,2442,5216,5616,5318,-1209,-7211,-5739,7326,2836,-2922,86,-5850,30,2566,-1716,4561
202,3.5156923421678132,60,6710,-3999,1369,3655,6411,7096,6316,6021,-1961,1589,86,-4375,95,7094,-7508,5034
203,3.531492453186836,-42,1199,-2081,-5620,3416,4476,4696,3130,5069,-2393,7983,228,3194,-58,3012,6020,5519
204,3.5589294618656497,-66,5066,-3583,-5042,-3455,-5534,3609,1361,-905,-1520,-8023,51,6357,-89,-7630,4246,-6480
205,3.592231319851963,-66,5066,-3583,-5042,-3455,-5534,3609,1361,-905,-1520,-8023,51,6357,-89,-7630,4246,-6480
206,3.6126013433472832,77,-3617,-6620,-3150,-1935,5108,3332,-1227,-7625,-113,-354,60,5033,137,-349,742,7181
207,3.637393738629745,78,3549,3592,7276,-6247,4355,-16,7841,3679,2742,-3069,126,-2222,-29,-1824,-3479,-7653
208,3.6604156456423325,-63,-3300,559,844,3830,-7353,-6414,114,3774,-5268,-2880,106,-7035,-25,6100,2541,6933
209,3.678105560445068,-63,-3300,559,844,3830,-7353,-6414,114,3774,-5268,-2880,106,-7035,-25,6100,2541,6933
210,3.693598188114806,-63,-3300,559,844,3830,-7353,-6414,114,3774,-5268,-2880,106,-7035,-25,6100,2541,6933
211,3.710212125022131,36,6982,-6199,2747,5264,2618,5245,6064,-1601,-7300,-54,113,-2562,132,4337,3418,-7003
212,3.7256444534536923,115,-8077,-174,-1422,234,1177,3456,8101,-2534,-5787,2065,113,-2923,-104,1859,7975,6511
213,3.7412747857666426,115,-8077,-174,-1422,234,1177,3456,8101,-2534,-5787,2065,113,-2923,-104,1859,7975,6511
214,3.7577903622145303,115,-8077,-174,-1422,234,1177,3456,8101,-2534,-5787,2065,113,-2923,-104,1859,7975,6511
215,3.7784836922634795,59,-3282,7052,-5581,3437,2275,5926,-616,-388,-1571,-680,113,-1457,102,3499,-4470,-4060
216,3.794327424007992,59,-3282,7052,-5581,3437,2275,5926,-616,-388,-1571,-680,113,-1457,102,3499,-4470,-4060
217,3.811779563091392,0,3616,-2007,-6995,-6120,667,-4648,-8012,-3269,-312,-8179,122,-5969,-12,-3463,-4837,-5336
218,3.82861887374708,0,3616,-2007,-6995,-6120,667,-4648,-8012,-3269,-312,-8179,122,-5969,-12,-3463,-4837,-5336
219,3.845293537546753,0,3616,-2007,-6995,-6120,667,-4648,-8012,-3269,-312,-8179,122,-5969,-12,-3463,-4837,-5336
220,3.8663888625168816,31,-2149,-2335,-5304,-5251,5783,-24,1256,6484,8066,-7030,111,-2358,128,-7468,-4255,7921
221,3.8829963846116344,-90,5610,-2684,851,8015,2353,4760,-3292,-8171,-7929,-1180,254,-2886,-98,-2453,-4829,-1991
222,3.899039830854222,-87,5270,2323,-4397,-1235,-702,1690,-7967,4671,5365,1930,98,1337,126,2136,-4093,6366
223,3.9146500634211137,74,-3674,-3515,-5999,-7506,6991,-204,-809,3836,6241,3596,237,5960,-46,6630,7289,978
224,3.9296821075481816,-58,7316,5052,7621,2677,3026,4963,5568,-5851,-7561,5833,81,5783,-2,-844,-3817,-2435
225,3.9458457246129517,-58,7316,5052,7621,2677,3026,4963,5568,-5851,-7561,5833,81,5783,-2,-844,-3817,-2435
226,3.9616129062607714,-58,7316,5052,7621,2677,3026,4963,5568,-5851,-7561,5833,81,5783,-2,-844,-3817,-2435
227,3.9788909900963847,-58,7316,5052,7621,2677,3026,4963,5568,-5851,-7561,5833,81,5783,-2,-844,-3817,-2435
228,3.9959364300627196,-58,7316,5052,7621,2677,3026,4963,5568,-5851,-7561,5833,81,5783,-2,-844,-3817,-2435
229,4.012355784322027,-58,7316,5052,7621,2677,3026,4963,5568,-5851,-7561,5833,81,5783,-2,-844,-3817,-2435
230,4.029024888617471,-58,7316,5052,7621,2677,3026,4963,5568,-5851,-7561,5833,81,5783,-2,-844,-3817,-2435
231,4.055947001673839,-58,7316,5052,7621,2677,3026,4963,5568,-5851,-7561,5833,81,5783,-2,-844,-3817,-2435
232,4.076834914370806,68,-2409,-6974,6517,-6695,-6299,2650,6522,-4766,-140,-2824,89,-3130,-3,-7057,3227,-278
233,4.092877077650878,68,-2409,-6974,6517,-6695,-6299,2650,6522,-4766,-140,-2824,89,-3130,-3,-7057,3227,-278
234,4.108506982309658,68,-2409,-6974,6517,-6695,-6299,2650,6522,-4766,-140,-2824,89,-3130,-3,-7057,3227,-278
235,4.12410566821392,68,-2409,-6974,6517,-6695,-6299,2650,6522,-4766,-140,-2824,89,-3130,-3,-7057,3227,-278
236,4.139721887939212,107,4382,3386,7318,2516,-4246,4154,-5176,-5910,6758,-5519,99,144,-79,-3586,3373,6176
237,4.154843311788116,107,4382,3386,7318,2516,-4246,4154,-5176,-5910,6758,-5519,99,144,-79,-3586,3373,6176
238,4.171018047861344,107,4382,3386,7318,2516,-4246,4154,-5176,-5910,6758,-5519,99,144,-79,-3586,3373,6176
239,4.189239536799214,1,-2469,-167,-1738,-3807,-2452,3090,-1263,-1477,-3249,-3776,123,-2926,-86,-3380,-5247,3904
240,4.206570222097917,1,-2469,-167,-1738,-3807,-2452,3090,-1263,-1477,-3249,-3776,123,-2926,-86,-3380,-5247,3904
241,4.224346950697461,84,-2249,1326,-2748,495,-3427,-901,3420,-5348,127,-7526,123,-3307,104,-6693,-3515,-7115
242,4.242479915221837,-104,394,2303,-1847,4794,1295,-2921,-5878,4949,7379,820,123,1952,-37,7549,-1954,-4529
243,4.261701259612597,132,-4783,5938,-3843,-1862,5644,-1628,-886,160,6427,-6407,30,-5132,25,-2971,-5023,6222
244,4.282645622660197,132,-4783,5938,-3843,-1862,5644,-1628,-886,160,6427,-6407,30,-5132,25,-2971,-5023,6222
245,4.300414653484655,49,7392,-6372,-4376,3244,-7035,8018,-7917,335,141,888,17,5201,-35,3152,4798,-2191
246,4.315628450634596,49,7392,-6372,-4376,3244,-7035,8018,-7917,335,141,888,17,5201,-35,3152,4798,-2191
247,4.331436687082877,-103,3682,1575,249,2635,-901,-3541,7794,2864,-4044,-978,19,-3743,29,-6366,2320,-6800
248,4.3489859036632,-27,-2746,6366,-5578,4817,963,7211,2149,5209,-2339,-7564,19,8075,102,1881,-7494,5917
249,4.365791857293513,-7,1249,-2097,5779,228,-8038,7212,5343,4275,-6295,6630,48,4944,20,8163,-1947,-1777
250,4.381334092847142,-7,1249,-2097,5779,228,-8038,7212,5343,4275,-6295,6630,48,4944,20,8163,-1947,-1777
251,4.396194647651452,-7,1249,-2097,5779,228,-8038,7212,5343,4275,-6295,6630,48,4944,20,8163,-1947,-1777
252,4.417687263346873,-7,1249,-2097,5779,228,-8038,7212,5343,4275,-6295,6630,48,4944,20,8163,-1947,-1777
253,4.43752870628626,-75,6138,2457,-5701,-7267,-4647,5751,-2131,-4771,5177,-3729,43,3870,-96,-7704,6877,1721
254,4.454007504475401,-75,6138,2457,-5701,-7267,-4647,5751,-2131,-4771,5177,-3729,43,3870,-96,-7704,6877,1721
255,4.471774397029001,15,-6328,2516,-7698,-3770,2722,2130,-7897,-7186,-4759,5690,92,-4021,147,878,-6607,-5003
256,4.48962853103358,15,-6328,2516,-7698,-3770,2722,2130,-7897,-7186,-4759,5690,92,-4021,147,878,-6607,-5003
257,4.506671405074886,57,-4455,181,-2859,-4650,-2654,3589,-2311,-3127,5184,-4351,99,-3236,-32,-7860,4143,-7319
258,4.523286624944726,57,-4455,181,-2859,-4650,-2654,3589,-2311,-3127,5184,-4351,99,-3236,-32,-7860,4143,-7319
259,4.53876941656852,57,-4455,181,-2859,-4650,-2654,3589,-2311,-3127,5184,-4351,99,-3236,-32,-7860,4143,-7319
260,4.560487406012305,-91,3476,795,5879,7319,1604,7620,2235,-4267,-3410,-7772,239,-6288,-51,4100,6762,-6440
261,4.577713316038999,95,-2286,-3729,5817,2018,7622,-2347,1459,-7542,-4406,-3087,32,-5347,-29,-6162,-1467,6581
262,4.594701022692186,95,-2286,-3729,5817,2018,7622,-2347,1459,-7542,-4406,-3087,32,-5347,-29,-6162,-1467,6581
263,4.616218014675381,80,292,4478,-2397,-190,4835,-816,-6410,4197,5028,-1196,238,-563,-8,2360,-1561,607
264,4.632084839745152,133,1903,-565,6596,-574,-52,3936,2502,-6333,-5009,-582,87,-2613,-64,2810,7381,-502
265,4.649806400956577,-11,-2467,5110,1293,-7109,4884,-8173,-7974,-1128,-1019,-4783,87,-5022,101,6248,-7232,-5237
266,4.6673273923615834,16,-813,-7279,4225,1818,-4170,4837,-5497,-6748,395,-932,87,5079,146,3123,-7711,-4382
267,4.6838267179509545,16,-813,-7279,4225,1818,-4170,4837,-5497,-6748,395,-932,87,5079,146,3123,-7711,-4382
268,4.700414995607992,43,-6151,-5665,5039,6672,2585,7507,-5148,-7321,-7712,-2629,110,-3550,-95,7790,8115,-357
269,4.720776466019882,39,7778,4597,3508,5638,-2726,-3660,-3016,637,-7672,-2799,51,-779,139,7366,-2231,2078
270,4.73786039486165,39,7778,4597,3508,5638,-2726,-3660,-3016,637,-7672,-2799,51,-779,139,7366,-2231,2078
271,4.752991654756498,-77,1977,708,-485,5349,2318,8084,-7520,4192,-7567,-3347,127,6993,-7,-4392,6543,5964
272,4.770102525811067,3,1864,-4170,7231,3189,-1780,4806,-6534,-6340,-134,-6119,48,4689,57,1765,7744,3656
273,4.786198145862574,3,1864,-4170,7231,3189,-1780,4806,-6534,-6340,-134,-6119,48,4689,57,1765,7744,3656
274,4.802002961077483,-75,6824,2390,7830,-2024,3007,-4675,610,1626,-4106,-6583,100,-1899,-28,4690,1698,4200
275,4.822405058635663,-79,-2726,5481,-4346,-5478,640,-2632,2588,-1324,6614,3299,100,-5626,61,-4118,2318,-7934
276,4.840053918637938,-79,-2726,5481,-4346,-5478,640,-2632,2588,-1324,6614,3299,100,-5626,61,-4118,2318,-7934
277,4.857883248700573,88,3558,-360,-6446,-5580,-5748,8052,-1510,7464,3063,4538,126,6965,94,3770,7795,7139
278,4.87655890636854,-5,4339,5576,-1266,1114,5884,-2999,252,-3495,-1430,1420,251,5526,20,6027,-2581,-3843
279,4.894090161473662,-46,-5380,6530,1235,7778,2184,-3492,-4220,1386,7074,-7616,29,1721,-1,-4632,-5572,-5578
280,4.911457625031112,-46,-5380,6530,1235,7778,2184,-3492,-4220,1386,7074,-7616,29,1721,-1,-4632,-5572,-5578
281,4.927290665421338,-20,5888,-1490,-6234,-148,-2566,-1782,-2985,2974,1649,4829,120,6939,18,6438,-2790,-5742
282,4.944366041179675,112,1440,2415,1245,-1240,3146,3799,7138,7345,1350,10,120,8118,-60,-928,659,-6789
283,4.960922244773852,124,1498,5901,-104,-274,53,6982,-3099,897,-5421,730,127,-2105,-75,-195,7738,821
284,4.976597053120635,-86,1264,7608,1450,3895,-7827,7918,-6113,3477,-6254,4491,25,-6443,-101,-4909,-7999,795
285,4.99214399287015,123,2693,8183,1044,2032,3073,-6830,7384,-334,5348,6093,124,1093,108,-3724,2781,2168
286,5.008965342050636,123,2693,8183,1044,2032,3073,-6830,7384,-334,5348,6093,124,1093,108,-3724,2781,2168
287,5.028235439016942,123,2693,8183,1044,2032,3073,-6830,7384,-334,5348,6093,124,1093,108,-3724,2781,2168
288,5.045003759080167,-15,-2170,2618,-5561,-3456,-746,358,-3905,619,-2449,2219,244,1917,132,-5743,-4141,7342
289,5.062012420787756,-36,-579,-1975,-7070,-2108,3786,6162,-2677,-7129,-6056,-3237,25,4377,125,-4327,-562,3488
290,5.091585562053048,-48,-7844,3376,4674,1779,1951,-1261,3925,6856,-1044,-5975,25,6255,11,7019,-5148,-4747
291,5.1099883763596194,130,2206,-6838,-4320,-6677,-6137,3810,3211,-1943,3504,-4561,25,-1417,49,2047,-4430,8131
292,5.128299245019326,130,2206,-6838,-4320,-6677,-6137,3810,3211,-1943,3504,-4561,25,-1417,49,2047,-4430,8131
293,5.144281109061222,-67,-7887,-3397,2359,-4929,-62,1531,7672,-764,-1658,-4782,83,1672,10,-3002,1667,5381
294,5.159949074941261,-67,-7887,-3397,2359,-4929,-62,1531,7672,-764,-1658,-4782,83,1672,10,-3002,1667,5381
295,5.17633678279188,-61,2564,3028,-7303,3063,6997,4924,-1885,4873,-6997,4062,91,-4302,-72,-5054,-1651,-3369
296,5.1913401740894605,-64,2921,-4797,-2957,-1296,-2272,-4269,-8096,502,-5840,5092,226,5558,73,-464,2310,6234
297,5.207425958095023,-64,2921,-4797,-2957,-1296,-2272,-4269,-8096,502,-5840,5092,226,5558,73,-464,2310,6234
298,5.225082515872384,-43,-5271,-1987,-7716,-5159,4608,7900,2745,-4169,5117,1725,226,2689,19,-2044,-6852,-4776
299,5.24422388893308,-43,-5271,-1987,-7716,-5159,4608,7900,2745,-4169,5117,1725,226,2689,19,-2044,-6852,-4776
300,5.260863057436521,53,-1272,-4925,2014,-714,-2885,-7688,-6861,-4643,-7365,-737,83,1833,-69,3152,7814,-6854
301,5.2788536131217985,-5,1174,6273,-6708,4112,5875,-4472,-345,-6312,4309,-5546,247,-3338,143,-4064,6721,-3364
302,5.297350511346093,-67,-1905,-7941,2376,-5550,7865,-7698,1845,1620,-372,7048,247,-1229,115,3502,5357,-6754
303,5.315941921142281,-67,-1905,-7941,2376,-5550,7865,-7698,1845,1620,-372,7048,247,-1229,115,3502,5357,-6754
304,5.333135329451944,-67,-1905,-7941,2376,-5550,7865,-7698,1845,1620,-372,7048,247,-1229,115,3502,5357,-6754
305,5.35077264279159,-67,-1905,-7941,2376,-5550,7865,-7698,1845,1620,-372,7048,247,-1229,115,3502,5357,-6754
306,5.367042745745055,-53,-5332,3372,-643,-7809,-7394,5563,5658,1505,-1458,-6654,119,6534,120,-5451,3123,-7530
307,5.383611778964376,-54,-4480,-1957,4293,-626,2025,-7030,-5679,-6097,589,844,237,-8024,61,602,-3362,7863
308,5.400740611494147,-54,-4480,-1957,4293,-626,2025,-7030,-5679,-6097,589,844,237,-8024,61,602,-3362,7863
309,5.41657579015523,119,8131,-6452,3490,4862,4456,5847,-1410,8061,4006,4102,83,5586,1,-3820,1613,2800
310,5.433241045563131,119,8131,-6452,3490,4862,4456,5847,-1410,8061,4006,4102,83,5586,1,-3820,1613,2800
311,5.457891887314837,119,8131,-6452,3490,4862,4456,5847,-1410,8061,4006,4102,83,5586,1,-3820,1613,2800
312,5.475692992202154,119,8131,-6452,3490,4862,4456,5847,-1410,8061,4006,4102,83,5586,1,-3820,1613,2800
313,5.4935484091692475,119,8131,-6452,3490,4862,4456,5847,-1410,8061,4006,4102,83,5586,1,-3820,1613,2800
314,5.510256857648467,119,8131,-6452,3490,4862,4456,5847,-1410,8061,4006,4102,83,5586,1,-3820,1613,2800
315,5.528528809778569,-8,-2064,-2517,-7622,4500,-3396,-6463,771,-4349,1853,-2666,36,-6069,100,-3822,-4645,-6734
316,5.545679452671085,-42,4141,-903,-4077,-5910,360,-1420,-4279,-6738,-225,-8019,54,-8185,13,170,6660,-4890
317,5.563097807074939,67,-3546,-187,840,-7452,-161,-2530,-3287,-2247,5010,-6562,54,979,46,-3147,-512,1294
318,5.587643445900464,72,-6954,-2937,-30,-6645,3641,-7937,3643,-1230,-4874,5560,90,-7755,103,-62,-6075,-6001
319,5.603562444779155,72,-6954,-2937,-30,-6645,3641,-7937,3643,-1230,-4874,5560,90,-7755,103,-62,-6075,-6001
320,5.621398189654362,121,-1259,687,6097,2342,-5651,-4326,3005,-8135,709,-5956,90,-5774,26,3228,745,7135
321,5.637346696670884,-67,-6219,-2365,3885,-1111,-1860,-2086,-3833,1117,-6726,-7197,90,-6341,-14,8133,-1408,-2580
322,5.654347660603386,-9,-4412,4714,464,-2495,-5346,-7934,1162,-7900,1000,636,47,1539,86,-212,4598,-4237
323,5.672570004849598,52,-739,-403,-7969,-7520,4196,6794,-3759,2776,-6741,-4128,116,-2153,53,4259,6991,-5449
324,5.6905143738843575,52,-739,-403,-7969,-7520,4196,6794,-3759,2776,-6741,-4128,116,-2153,53,4259,6991,-5449
325,5.708350118759563,46,6090,3877,2400,5137,3870,-2331,-7381,-5668,4531,-315,93,-6827,84,4997,-1863,-5861
326,5.728363906330052,-31,863,6172,1132,6563,-6472,-4630,3758,-3983,5891,-2869,233,5773,-8,4378,-7802,-671
327,5.7489528887611625,-31,863,6172,1132,6563,-6472,-4630,3758,-3983,5891,-2869,233,5773,-8,4378,-7802,-671
328,5.768778080842034,-20,-2547,-4847,1693,1480,4975,1837,3063,6215,5926,-2024,29,-4892,-50,738,5979,-3464
329,5.787234351920039,-86,3884,6173,-5796,2293,601,4364,680,7495,2,-5045,60,-6415,-45,6258,4760,1275
330,5.804104881330244,-86,3884,6173,-5796,2293,601,4364,680,7495,2,-5045,60,-6415,-45,6258,4760,1275
331,5.820295868261987,109,-6227,6448,-2782,3171,-1185,-7666,6532,1099,4317,6285,97,3529,132,6896,-4214,196
332,5.836010020792545,93,7994,7352,3259,-3355,5586,5912,6635,3895,6755,3314,247,819,83,3453,-206,733
333,5.853099509138542,53,-4970,-3112,1338,-6358,-2935,4591,5856,5586,-1668,-4754,125,-1223,-66,2625,951,5417
334,5.871743948051993,10,3423,7431,78,-394,315,6030,-5582,624,-7055,3410,233,-6281,-16,2641,-4253,3548
335,5.897261217155091,147,3511,1408,5809,870,-4808,-5321,4972,7532,5673,-280,233,-5608,118,4135,-1937,-4713
336,5.914754411038952,-27,1290,1086,2891,5362,741,3022,7042,-207,-4743,1972,233,-1762,108,-7746,-5743,525
337,5.93270177365291,-27,1290,1086,2891,5362,741,3022,7042,-207,-4743,1972,233,-1762,108,-7746,-5743,525
338,5.949521412216711,-27,1290,1086,2891,5362,741,3022,7042,-207,-4743,1972,233,-1762,108,-7746,-5743,525
339,5.967008191288,-27,1290,1086,2891,5362,741,3022,7042,-207,-4743,1972,233,-1762,108,-7746,-5743,525
340,5.9830178528510425,-27,1290,1086,2891,5362,741,3022,7042,-207,-4743,1972,233,-1762,108,-7746,-5743,525
341,5.9995308633739,-73,-948,-623,4737,3003,2901,-5223,7746,-7972,-3081,-7941,233,-2964,-17,-6565,2385,3254
342,6.015908307524404,-73,-948,-623,4737,3003,2901,-5223,7746,-7972,-3081,-7941,233,-2964,-17,-6565,2385,3254
343,6.032696727333687,-81,4296,-926,3080,-6913,-6202,5629,8053,-3801,-4231,-2065,92,3136,-45,3592,-3418,3850
344,6.048337751000925,-81,4296,-926,3080,-6913,-6202,5629,8053,-3801,-4231,-2065,92,3136,-45,3592,-3418,3850
345,6.066940707459743,135,-6746,-3572,117,6376,-5246,-1501,933,2040,-4179,-6493,118,-580,76,7573,-4754,-208
346,6.093408651786012,-42,3753,-6161,2865,812,-987,1806,-5809,-3997,-5278,378,95,650,-6,-2338,1208,390
347,6.1105588670243565,-104,5057,4735,-7243,-814,-606,-5716,1573,-5579,3712,-4970,244,4374,-38,3147,8125,-7793
348,6.129707937860139,-104,5057,4735,-7243,-814,-606,-5716,1573,-5579,3712,-4970,244,4374,-38,3147,8125,-7793
349,6.148033774415846,34,3475,6053,-5029,6375,7410,-980,-7455,-1132,4684,4792,84,4851,103,-6908,-296,1067
350,6.16648705191465,142,4725,607,-5282,-2449,1383,3297,-2612,-1806,-4764,6271,84,-616,120,8005,5684,3550
351,6.1826207331874174,51,-2036,-1549,-1576,-4960,76,-7152,-1984,6246,-4696,3723,84,4172,6,7004,-6529,2279
352,6.197517210942131,51,-2036,-1549,-1576,-4960,76,-7152,-1984,6246,-4696,3723,84,4172,6,7004,-6529,2279
353,6.2139053464469205,-71,-4758,-1344,5154,-5267,-1517,3517,-3867,5791,5186,855,40,5495,-20,-7580,1922,-5492
354,6.230246439992849,-12,7300,1685,5340,-3085,-6204,-5906,422,-909,4881,-2517,56,-4966,-96,-6639,6726,-7897
355,6.246146194433824,12,7675,-1992,-5373,1706,2227,2090,3614,4400,-4017,-7963,32,-5655,63,2248,4715,6870
356,6.263267329188509,12,7675,-1992,-5373,1706,2227,2090,3614,4400,-4017,-7963,32,-5655,63,2248,4715,6870
357,6.281112054801316,12,7675,-1992,-5373,1706,2227,2090,3614,4400,-4017,-7963,32,-5655,63,2248,4715,6870
358,6.2982336172101725,20,5164,7277,5733,2885,-8166,-4721,-443,4088,1076,-7069,32,7457,-33,6499,-3068,-3282
359,6.321891445975732,-73,1781,6335,-865,-2570,4116,-5647,6365,-2077,-2252,-4039,42,7486,-75,3086,3034,-6397
360,6.339670312846133,66,6807,2514,5911,-3367,-1326,6095,-2090,-6899,305,6109,96,4346,18,2267,-1437,-6031
361,6.357533427588312,68,47,7694,8129,1459,2828,7843,-4804,-2963,1978,4895,109,4728,108,3109,2208,7235
362,6.374043872186142,68,47,7694,8129,1459,2828,7843,-4804,-2963,1978,4895,109,4728,108,3109,2208,7235
363,6.389858095792824,-39,746,2703,-1735,398,-4653,7351,2444,-5410,-3655,3621,254,-4490,58,1392,-7350,-7460
364,6.407015153497912,32,-1946,6336,1206,4315,708,-2150,4259,6812,6391,1048,254,3129,-71,-1152,-4180,551
365,6.422779341566532,32,-1946,6336,1206,4315,708,-2150,4259,6812,6391,1048,254,3129,-71,-1152,-4180,551
366,6.439636613697421,32,-1946,6336,1206,4315,708,-2150,4259,6812,6391,1048,254,3129,-71,-1152,-4180,551
367,6.457588252853095,131,-63,-80,1142,-1538,-467,-7047,-4495,7775,6499,362,106,637,-38,159,-7216,4428
368,6.475951722975892,131,-63,-80,1142,-1538,-467,-7047,-4495,7775,6499,362,106,637,-38,159,-7216,4428
369,6.492835937319583,-73,-4045,-6298,7626,-1181,118,-1674,-6319,-6050,-715,-4332,106,-3088,53,4544,-4112,5087
370,6.509614093428752,27,-1883,1989,-1503,7527,3043,-3618,6248,-2590,3953,1777,91,-7138,96,-7708,683,3492
371,6.527211634930451,27,-1883,1989,-1503,7527,3043,-3618,6248,-2590,3953,1777,91,-7138,96,-7708,683,3492
372,6.545970685161854,27,-1883,1989,-1503,7527,3043,-3618,6248,-2590,3953,1777,91,-7138,96,-7708,683,3492
373,6.5614718659150215,97,-2908,7771,2835,255,2301,3274,3231,1846,-728,-1229,99,7778,103,2481,4953,-586
374,6.585951645998141,44,-8002,369,-2535,6672,-2643,5228,6289,-5583,184,-6912,99,-1318,54,-6592,-888,4166
375,6.602694306811077,44,-8002,369,-2535,6672,-2643,5228,6289,-5583,184,-6912,99,-1318,54,-6592,-888,4166
376,6.619623424842773,104,2710,-1835,-5079,6593,-4824,7985,-7555,-1297,-6631,-67,86,-4422,20,-2616,1222,-617
377,6.63524691468898,11,6413,-1994,-5455,-6433,-7426,1784,2954,-3447,-817,524,123,-4675,-32,-403,880,-2120
378,6.651612384522682,47,6872,3372,-6509,-5859,3227,7368,-1480,1343,8158,-6149,27,-2822,129,7790,-7548,-5005
379,6.666789403413878,149,-1224,-4884,-565,-3549,7449,-6124,3276,-6934,-1513,7861,27,5514,34,-377,6310,-5727
380,6.687157716292512,57,1502,-691,-1836,-5823,-5286,5267,1913,4263,958,5819,239,-1239,65,-6533,1627,-6953
381,6.703213136851901,-11,1066,-6217,4738,4085,4201,-3346,6194,-3442,-2284,-1383,108,2675,-48,4101,5335,-921
382,6.7205955683053515,-11,1066,-6217,4738,4085,4201,-3346,6194,-3442,-2284,-1383,108,2675,-48,4101,5335,-921
383,6.7413423551257345,122,4284,-4673,-63,2196,4638,4065,7814,6909,-7415,-3369,109,1505,-7,-3985,1008,3702
384,6.760609458512842,109,3933,5674,3478,-3206,-2635,2659,3590,-2038,-746,-7865,54,1488,-75,3376,6100,2094
385,6.780748121101397,118,4902,-7026,-900,-852,3763,943,-6604,2331,-7666,-4504,35,-4499,67,-5927,4999,-6615
386,6.796556357549679,100,3031,4126,3781,6682,5460,5237,1534,-5824,-4004,839,81,660,-30,-3920,-3672,1028
387,6.812742640285536,-44,2243,3333,6530,-1479,-7459,442,-7704,3639,1820,4819,81,-7149,107,6945,3141,4444
388,6.829797916297815,132,-3019,3268,-6400,-80,4054,432,6002,-5307,950,7220,89,3528,-64,-3950,344,-1356
389,6.844936018659407,5,-8151,-6056,4733,-1132,-469,3883,-6986,5804,-7884,-1959,88,6031,-13,6241,5586,-3949
390,6.860882387405072,38,-5115,7733,2071,153,-2254,4096,-6726,5081,-5951,2819,110,-3116,-32,2130,-7695,2943
391,6.876861685521939,-26,4007,418,4894,-7998,1634,6802,-778,-2979,2505,-683,115,-1068,117,-7984,7907,-6376
392,6.896745466224301,32,-3954,131,-6826,-3451,-4090,-1414,-6161,-1541,-3554,5374,115,-116,86,-1617,6323,-1652
393,6.916135306358619,93,8000,4453,-1283,6364,5656,5476,-2744,-5924,-2668,-7368,115,-3509,-66,6697,4211,-3970
394,6.9439264126914075,93,8000,4453,-1283,6364,5656,5476,-2744,-5924,-2668,-7368,115,-3509,-66,6697,4211,-3970
395,6.962841984349568,148,1282,-6333,3518,3184,-5134,1832,-4614,-4479,1768,1660,115,-5193,5,115,-5070,5679
396,6.980843659043304,148,1282,-6333,3518,3184,-5134,1832,-4614,-4479,1768,1660,115,-5193,5,115,-5070,5679
397,6.999116466481749,-33,7499,-4077,-131,7264,-7422,-2395,998,-238,2525,-4167,23,1636,62,561,714,-4635
398,7.015307025759322,147,-444,105,6281,1673,7974,6632,6854,8029,-7287,3017,227,-4332,32,3858,4556,-5942
399,7.03099509138542,-30,3528,-1207,1272,-67,172,-7910,-595,-7566,5086,-7366,109,1767,23,-4506,-3413,-6394
400,7.04803326123084,146,-564,2145,-3866,-3446,-6276,3902,-7797,2679,-687,-748,109,7108,61,-2974,-6156,7329
401,7.0638213979330615,146,-564,2145,-3866,-3446,-6276,3902,-7797,2679,-687,-748,109,7108,61,-2974,-6156,7329
402,7.0848589895900425,45,-7793,-3681,-2428,3128,-6068,2371,-3190,3840,1726,2981,109,-1759,66,5161,1934,6870
403,7.101436148238621,-4,3019,-2462,832,485,-6917,-2933,-126,99,-6367,-7424,109,2576,-15,-7367,-2422,-6623
404,7.120816579981166,-48,-1564,1793,5048,1166,6947,-2046,95,8119,-5452,2707,45,-6109,40,-1803,6315,6131
405,7.1381198954128955,71,6951,201,8161,1678,-2316,-4340,5436,7288,4533,6535,103,1672,-17,507,-2823,6465
406,7.156852003431497,71,6951,201,8161,1678,-2316,-4340,5436,7288,4533,6535,103,1672,-17,507,-2823,6465
407,7.1754801914864315,86,-7287,7083,-4338,4840,228,5706,-646,2234,-7561,712,251,-1731,-95,899,5694,101
408,7.192689423000439,89,6948,3355,7755,-4638,-6137,3968,-4861,-2049,1144,-5979,248,-6733,128,4642,2962,6699
409,7.210030799653429,78,-2954,124,3721,3868,5827,-6551,-7647,-7420,4939,1403,248,3084,116,-5413,-6002,-7184
410,7.226809383416769,28,8033,1681,-750,-7386,-3088,4879,2175,-4744,301,3395,93,1263,-49,-5842,-6955,-225
411,7.2434600985828395,28,8033,1681,-750,-7386,-3088,4879,2175,-4744,301,3395,93,1263,-49,-5842,-6955,-225
412,7.2617260635545415,-32,5968,-6406,6417,-3230,4075,249,-521,-7408,7892,-5142,93,3899,-34,-5333,-678,-4087
413,7.2780727166047,-32,5968,-6406,6417,-3230,4075,249,-521,-7408,7892,-5142,93,3899,-34,-5333,-678,-4087
414,7.295342247356883,128,1075,-2264,-2227,-5409,-36,7126,5299,-4891,-2921,-3046,118,4032,19,-6718,3419,-1969
415,7.312802939523713,-48,-3632,1602,7115,-2020,-2223,6106,4828,3229,-4628,5139,54,-1357,20,-3816,-7434,-1588
416,7.329531915403162,18,4919,-1869,-3257,-1727,-6146,-5142,2007,-2921,5848,2243,61,7925,-67,-6803,-3418,1169
417,7.346529458102293,128,7204,2648,512,6049,-1847,4638,3696,-7554,312,5759,61,7501,50,-3895,1170,-4895
418,7.364011960631868,128,7204,2648,512,6049,-1847,4638,3696,-7554,312,5759,61,7501,50,-3895,1170,-4895
419,7.382032452109148,128,7204,2648,512,6049,-1847,4638,3696,-7554,312,5759,61,7501,50,-3895,1170,-4895
420,7.400751302848433,128,7204,2648,512,6049,-1847,4638,3696,-7554,312,5759,61,7501,50,-3895,1170,-4895
421,7.4183223297915015,128,7204,2648,512,6049,-1847,4638,3696,-7554,312,5759,61,7501,50,-3895,1170,-4895
422,7.435798417508504,113,-1004,2871,2472,-2286,7552,-4419,5,294,-545,-1575,20,4418,136,-4621,-6932,7439
423,7.451595962602498,113,-1004,2871,2472,-2286,7552,-4419,5,294,-545,-1575,20,4418,136,-4621,-6932,7439
424,7.4670928668139505,83,38,-7106,-7641,7274,-3681,5309,3428,-4005,1342,-2440,59,-8174,-105,-2287,-403,-4250
425,7.48354771636949,132,-3731,4838,-3000,451,-7841,5652,6700,39,7932,-6622,51,-5742,29,7244,5138,170
426,7.500103064655324,132,-3731,4838,-3000,451,-7841,5652,6700,39,7932,-6622,51,-5742,29,7244,5138,170
427,7.516211941986145,77,4035,-587,-4587,4794,-5330,7382,5464,5630,2524,2830,88,6231,107,953,-3381,8070
428,7.532371710163372,-53,-260,-4026,1989,2132,7976,-6826,3028,128,-4856,4928,247,1206,-15,-6694,-7934,-3748
429,7.551307809221764,-5,5383,-3927,-5320,-2683,-2967,59,-8054,6884,-6859,6729,58,354,48,-5053,2937,1459
430,7.5686025715700636,3,3365,-5600,4975,6916,1995,-5249,-3981,5588,-6492,4237,58,3962,99,-4664,-4060,-3487
431,7.597207931445325,141,6727,-1592,7926,5596,2226,5327,7003,3775,3418,6351,87,1646,-16,4418,-2520,-2189
432,7.615417446066394,141,6727,-1592,7926,5596,2226,5327,7003,3775,3418,6351,87,1646,-16,4418,-2520,-2189
433,7.634272718486378,141,-3416,4361,1189,-2105,5388,2527,-4790,-7773,-6361,7949,87,2224,5,-1002,3132,-3717
434,7.651252299710307,141,-3416,4361,1189,-2105,5388,2527,-4790,-7773,-6361,7949,87,2224,5,-1002,3132,-3717
435,7.6671593242721965,141,-3416,4361,1189,-2105,5388,2527,-4790,-7773,-6361,7949,87,2224,5,-1002,3132,-3717
436,7.6832083300190135,141,-3416,4361,1189,-2105,5388,2527,-4790,-7773,-6361,7949,87,2224,5,-1002,3132,-3717
437,7.698460188390215,141,-3416,4361,1189,-2105,5388,2527,-4790,-7773,-6361,7949,87,2224,5,-1002,3132,-3717
438,7.7145138983329185,141,-3416,4361,1189,-2105,5388,2527,-4790,-7773,-6361,7949,87,2224,5,-1002,3132,-3717
439,7.733733959761164,-57,-469,7141,3353,3825,5477,-630,6005,3856,4371,6755,87,7144,-80,5899,-7934,5672
440,7.753101561878565,-100,-4572,-7731,4614,-5839,4691,-1044,6604,-6413,5032,4743,26,583,14,2786,4222,-4445
441,7.771204162956766,-100,-4572,-7731,4614,-5839,4691,-1044,6604,-6413,5032,4743,26,583,14,2786,4222,-4445
442,7.790521301881935,97,5838,5287,-4018,6756,7586,-6016,574,-3470,-4638,-2197,26,-1770,76,-7625,3779,6161
443,7.806733243868081,-8,6649,7442,-4593,6038,-5926,-5698,3781,700,-3145,-3170,34,715,13,7550,-7121,-76
444,7.826415599455681,-8,6649,7442,-4593,6038,-5926,-5698,3781,700,-3145,-3170,34,715,13,7550,-7121,-76
445,7.845230244729376,-98,-331,5193,-3440,6481,2141,-2267,-3429,-4956,3813,-3240,34,2373,-33,5910,-7337,-7282
446,7.862102057102096,17,1750,-7048,6769,887,1046,3810,-8149,-5097,1140,-4241,225,4784,70,5565,1729,-789
447,7.87829903119224,11,7811,-116,-4488,-7415,-3496,-7255,-2115,1265,-6270,-2146,225,-7237,-71,1424,-565,-98
448,7.894132071582466,11,7811,-116,-4488,-7415,-3496,-7255,-2115,1265,-6270,-2146,225,-7237,-71,1424,-565,-98
449,7.910967961004782,-94,6064,-3945,5013,-1439,6738,-6628,2096,8121,163,-5044,114,6595,-86,3976,775,1530
450,7.928695509374607,-94,6064,-3945,5013,-1439,6738,-6628,2096,8121,163,-5044,114,6595,-86,3976,775,1530
451,7.947146648602555,-102,7329,-6763,-7496,-854,7771,-4912,-2916,2979,-6923,-7449,84,2618,63,274,3203,-3104
452,7.964142053030828,-73,6792,5724,-321,-6722,-3692,-1630,7230,-4603,3952,803,84,-2089,94,-4040,7676,-831
453,7.9817088034321815,37,9,5923,-4264,4325,-890,-3821,4286,-3079,-7071,-7633,102,7622,141,-5862,-4603,5237
454,8.000228367327564,-10,-5091,-5755,-8168,4493,-1465,8114,-4299,-3878,-2195,3257,102,-4309,149,-6528,798,-2026
455,8.017462830437687,-89,6245,4592,-2322,2182,-1700,3959,7467,-811,-7070,-5286,231,-3322,116,-7259,-4083,4055
456,8.035736493184475,-13,2678,887,-7407,4527,-3705,-4703,-245,1184,5732,1778,27,2424,-57,1140,-5756,-3996
457,8.053218140405708,-13,2678,887,-7407,4527,-3705,-4703,-245,1184,5732,1778,27,2424,-57,1140,-5756,-3996
458,8.070680115535051,15,-347,897,-4381,-4472,-7531,4681,5527,3605,4156,-2978,120,6506,-4,303,2948,-4627
459,8.087807665102307,58,-6014,-4923,7702,4358,4343,3392,-6236,2637,-6030,4941,25,473,146,2313,4408,1827
460,8.110217598995526,58,-6014,-4923,7702,4358,4343,3392,-6236,2637,-6030,4941,25,473,146,2313,4408,1827
461,8.125979221139117,-5,-4545,-7612,2839,3629,4686,-5340,-3420,7373,-1931,-7423,23,5626,-91,2558,-2695,-205
462,8.141833216583745,-5,-4545,-7612,2839,3629,4686,-5340,-3420,7373,-1931,-7423,23,5626,-91,2558,-2695,-205
463,8.157792414954553,118,1055,4662,-4498,-1691,-3371,-7412,3601,1977,1438,2156,96,-3885,125,5635,-4231,-5221
464,8.1762405606033,33,4874,5327,4191,-3583,900,-4988,6462,-6784,-4611,5838,105,-1287,124,-5706,4935,7010
465,8.193553712080973,33,4874,5327,4191,-3583,900,-4988,6462,-6784,-4611,5838,105,-1287,124,-5706,4935,7010
466,8.20952103588104,33,4874,5327,4191,-3583,900,-4988,6462,-6784,-4611,5838,105,-1287,124,-5706,4935,7010
467,8.227819930223946,-75,4350,4138,-5543,1695,-7752,8063,6916,8012,2597,4072,100,-5207,48,-172,1267,8001
468,8.24690570824235,-76,8130,4682,5346,6011,-1006,6122,6376,2637,-4346,4655,126,4917,-70,-7040,6446,7918
469,8.264785073843045,-76,8130,4682,5346,6011,-1006,6122,6376,2637,-4346,4655,126,4917,-70,-7040,6446,7918
470,8.284133431522731,-39,6340,-2999,-992,1698,-7533,-7343,-7200,5756,6739,6626,88,-1289,141,6729,-6202,2676
471,8.300333826846247,-39,6340,-2999,-992,1698,-7533,-7343,-7200,5756,6739,6626,88,-1289,141,6729,-6202,2676
472,8.317844554551138,93,5852,2403,4290,-6784,-5165,-3776,-2378,-3228,-5974,3227,241,-530,-78,1205,3187,1260
473,8.333459491313915,93,5852,2403,4290,-6784,-5165,-3776,-2378,-3228,-5974,3227,241,-530,-78,1205,3187,1260
474,8.350513912017853,-4,6464,6355,-1976,-3,-6836,-7441,-5465,1317,4431,724,234,871,84,-6906,-5759,3947
475,8.365883375286208,101,-4093,6021,6814,294,7138,-5040,4005,101,-2499,6797,234,-7784,47,-1137,-3536,-455
476,8.381892181540906,101,-4093,6021,6814,294,7138,-5040,4005,101,-2499,6797,234,-7784,47,-1137,-3536,-455
477,8.39776542142325,104,-2332,-5466,-5171,3235,-2597,-5210,-2684,2303,-6891,-2657,234,6362,108,-6706,6206,-4623
478,8.414570947399392,110,-7730,-605,-5712,-3024,-6164,1980,2533,-7597,-5757,2690,234,-1665,20,-2690,4918,-4493
479,8.43181567420963,43,5907,3147,5159,-164,-700,-6696,3806,-5898,-3824,-4000,31,4556,-46,-7513,-2454,-6975
480,8.45008377745219,10,1119,-2882,4601,-663,8095,2819,5002,1112,2183,-2948,83,-2781,146,-89,-2699,-7383
481,8.46719764208596,10,1119,-2882,4601,-663,8095,2819,5002,1112,2183,-2948,83,-2781,146,-89,-2699,-7383
482,8.485971232559194,10,1119,-2882,4601,-663,8095,2819,5002,1112,2183,-2948,83,-2781,146,-89,-2699,-7383
483,8.503665851557816,10,1119,-2882,4601,-663,8095,2819,5002,1112,2183,-2948,83,-2781,146,-89,-2699,-7383
484,8.52370786430362,-78,7353,-7439,-376,2606,5302,-5314,3023,5001,-1386,-6804,83,6843,-56,-2671,4658,-1617
485,8.540448814499872,-58,-899,5342,2875,6891,1593,1706,3926,3031,8108,1303,84,-6968,-89,1304,4158,2817
486,8.557791474115376,124,1048,5604,4877,-5909,1361,2910,3534,207,2863,4841,227,-7559,-82,4301,1715,-5824
487,8.574123586923704,-85,-7397,-1507,8089,-7219,-6430,-7041,4555,-2283,4885,-6028,81,3098,147,3315,5509,-2428
488,8.593846569657595,40,5465,834,3581,6222,1598,129,-892,-7379,934,-5215,53,592,-15,-5594,6296,3131
489,8.61504324866636,-68,5889,3364,-2110,-4478,-4898,-4760,5616,737,-5928,6286,84,2802,56,-7936,-4722,2027
490,8.632695102247835,109,7595,296,-2590,-5932,6335,1303,-6631,-6701,-6179,5536,31,-5869,111,1155,6986,-5330
491,8.651537117388504,109,7595,296,-2590,-5932,6335,1303,-6631,-6701,-6179,5536,31,-5869,111,1155,6986,-5330
492,8.670483480147011,-90,-299,-5787,2549,-2156,-5389,6567,3178,-4949,-2666,-7158,31,7694,132,7170,-45,33
493,8.69161430041337,-18,8145,6184,7442,1639,408,-1297,2096,-6258,498,-1564,110,1037,79,-3142,-6236,-4362
494,8.707801010803399,41,-4970,-6491,4169,5952,-2286,-2203,2687,526,-6735,3437,109,-7448,141,-2231,-2639,4809
495,8.72882106863935,13,2646,7186,1487,2353,-7462,-6999,7582,-5738,1512,-6387,103,-607,113,2770,848,7344
496,8.747362870551648,13,2646,7186,1487,2353,-7462,-6999,7582,-5738,1512,-6387,103,-607,113,2770,848,7344
497,8.765664758473754,13,2646,7186,1487,2353,-7462,-6999,7582,-5738,1512,-6387,103,-607,113,2770,848,7344
498,8.78325845108791,29,-423,-3157,-8053,-4165,-2571,1038,2651,-2897,293,-1315,113,4387,136,-1181,4688,4548
499,8.799374170885475,-84,-5894,-7550,5039,-2578,-7561,6309,6224,-3101,-400,-5372,35,-4243,147,3696,-4009,-3270
500,8.815415051203034,128,1556,413,-6527,-5459,8158,8054,3401,-621,7132,-7553,240,3185,-32,-5204,-460,-944
501,8.832812878206658,-80,-3760,-3860,-2109,2918,7969,-832,-2742,3615,-2556,7785,241,-7613,77,857,-7445,6995
502,8.850466870058991,67,3922,6192,-517,2713,7763,4923,4060,2609,6513,-1914,226,2902,-4,7907,7945,6713
503,8.868727275526464,119,-6683,3613,-5081,-7719,1018,793,692,48,1523,1736,26,7369,143,1632,-7623,-2954
504,8.887352042348027,18,-1076,-2725,6662,-4575,972,4463,5876,-20,-2000,753,87,4295,129,-6791,3594,5729
505,8.904503112894714,-16,-7241,4857,-1633,-13,-4935,-2263,-3596,3219,7594,3058,245,-1728,-65,-5820,-248,-7678
506,8.922212272135166,-5,7934,-7202,-8192,-7688,5995,-321,4868,-5676,6062,792,96,-1311,89,5906,5886,3243
507,8.939285937276818,-95,-2836,7372,908,-2308,-771,1712,-5302,-4203,3914,2435,22,-3691,-80,-1836,7835,-7949
508,8.956041427714899,18,-6935,-878,-3480,2780,-6510,-6213,-6558,3490,-4959,-4534,93,-5694,142,4909,6237,-4848
509,8.973361421659316,18,-6935,-878,-3480,2780,-6510,-6213,-6558,3490,-4959,-4534,93,-5694,142,4909,6237,-4848
510,8.989157683790795,14,-2307,-6407,5657,1761,-5872,6432,-4063,-2088,2534,-3815,55,-6549,33,-135,5054,-1312
511,9.005406831689859,14,-2307,-6407,5657,1761,-5872,6432,-4063,-2088,2534,-3815,55,-6549,33,-135,5054,-1312
512,9.02045170544207,14,-2307,-6407,5657,1761,-5872,6432,-4063,-2088,2534,-3815,55,-6549,33,-135,5054,-1312
513,9.03774090828614,40,-5753,-5868,-793,-5368,-7957,1769,-5812,4055,-7814,3505,42,4918,100,-7464,211,-5932
514,9.055299533258237,40,-5753,-5868,-793,-5368,-7957,1769,-5812,4055,-7814,3505,42,4918,100,-7464,211,-5932
515,9.072890659947364,65,1856,-1497,5568,748,-1097,-2113,-4005,-6839,-4059,-4468,246,5719,-9,-6266,5911,5116
516,9.092747070782753,52,-2040,2960,-105,6208,2671,4685,2374,395,1818,-6676,247,-2112,-105,-2858,-3161,-7034
517,9.113091862681957,52,-2040,2960,-105,6208,2671,4685,2374,395,1818,-6676,247,-2112,-105,-2858,-3161,-7034
518,9.138848618121076,52,-2040,2960,-105,6208,2671,4685,2374,395,1818,-6676,247,-2112,-105,-2858,-3161,-7034
519,9.1556049638675,52,-2040,2960,-105,6208,2671,4685,2374,395,1818,-6676,247,-2112,-105,-2858,-3161,-7034
520,9.171840426833075,145,-974,-6383,358,538,1198,-2902,-404,6888,-1500,7598,124,6507,99,775,-2996,-5250
521,9.187525926534144,124,2833,-5501,-7841,4216,-6444,-1720,-5385,-7110,6251,4661,55,8160,49,-7753,-7782,-2189
522,9.203179779826526,36,5349,2897,5939,7424,7359,3987,-5894,-29,3702,6543,101,-877,80,4528,5236,4971
523,9.219342113928782,73,-4648,-4542,-4415,7747,-2512,-7694,5498,-4066,4099,-2117,101,6995,57,-6959,-2052,-4503
524,9.235527113702124,90,-2716,-1786,3679,-4305,4519,-2591,-5794,-1410,-1587,4994,246,384,19,-3157,-4010,-5571
525,9.254642827512532,90,-2716,-1786,3679,-4305,4519,-2591,-5794,-1410,-1587,4994,246,384,19,-3157,-4010,-5571
526,9.26971293286086,90,-2716,-1786,3679,-4305,4519,-2591,-5794,-1410,-1587,4994,246,384,19,-3157,-4010,-5571
527,9.290020518847147,-80,-3669,666,-872,671,-4623,5215,2927,-3060,6737,-732,61,-2156,-68,409,1125,1265
528,9.308374152924,-80,-3669,666,-872,671,-4623,5215,2927,-3060,6737,-732,61,-2156,-68,409,1125,1265
529,9.327694285428368,-80,-3669,666,-872,671,-4623,5215,2927,-3060,6737,-732,61,-2156,-68,409,1125,1265
530,9.34562753545467,135,-6595,910,4201,-2952,2237,-364,-4872,4771,-623,5437,85,-5743,83,-4184,7954,-4687
531,9.36205672575992,135,-6595,910,4201,-2952,2237,-364,-4872,4771,-623,5437,85,-5743,83,-4184,7954,-4687
532,9.377163181712824,135,-6595,910,4201,-2952,2237,-364,-4872,4771,-623,5437,85,-5743,83,-4184,7954,-4687
533,9.394031572852171,135,-6595,910,4201,-2952,2237,-364,-4872,4771,-623,5437,85,-5743,83,-4184,7954,-4687
534,9.410137884257965,135,-6595,910,4201,-2952,2237,-364,-4872,4771,-623,5437,85,-5743,83,-4184,7954,-4687
535,9.425153677526517,135,-6595,910,4201,-2952,2237,-364,-4872,4771,-623,5437,85,-5743,83,-4184,7954,-4687
536,9.441182155873102,115,-5513,2376,5695,-2461,-2954,6868,6882,-3074,8152,2366,55,1684,122,4090,1525,3828
537,9.45550814296308,115,-5513,2376,5695,-2461,-2954,6868,6882,-3074,8152,2366,55,1684,122,4090,1525,3828
538,9.476610738054122,-20,972,-5749,4647,-2393,638,3092,2718,-4328,-4791,2660,18,3205,-24,2527,-3803,-3424
539,9.494667152481805,-20,972,-5749,4647,-2393,638,3092,2718,-4328,-4791,2660,18,3205,-24,2527,-3803,-3424
540,9.512346375930255,60,-5877,-5397,-384,-7882,4087,5165,2282,-2578,7617,5104,126,-232,-50,527,-254,7985
541,9.529439713163795,60,-3902,-2234,-442,-3607,-6727,2910,-3988,-5172,6689,-5000,43,21,-94,7122,2599,2227
542,9.547619719647031,-46,-1934,-3031,-3638,7264,-597,982,4317,2190,2595,3253,16,-291,-102,1286,-3183,1314
543,9.56512959204358,-5,2800,-4284,-8131,5070,2458,-435,52,4791,-4148,-1817,16,2378,-38,-7369,1056,-2936
544,9.58325485879287,-5,2800,-4284,-8131,5070,2458,-435,52,4791,-4148,-1817,16,2378,-38,-7369,1056,-2936
545,9.60045981376516,-5,2800,-4284,-8131,5070,2458,-435,52,4791,-4148,-1817,16,2378,-38,-7369,1056,-2936
546,9.621312231165897,-5,2800,-4284,-8131,5070,2458,-435,52,4791,-4148,-1817,16,2378,-38,-7369,1056,-2936
547,9.640005850309066,61,-7184,-1948,6919,-1390,3758,-7832,7777,1207,4357,-6716,16,3906,40,6879,-6688,6176
548,9.656029196805594,69,4155,6068,6977,-3955,2238,-8148,-109,2481,7030,5634,251,2556,-28,-7444,-1857,6003
549,9.672793667981276,75,5706,1863,-2,-3127,-309,2639,-7737,-3518,-2894,-1239,48,-7667,88,-4995,55,2089
550,9.693087141379904,73,-593,-2914,4792,2510,-6466,7998,-5972,4052,-3561,-1591,238,5378,-35,-3348,-940,1040
551,9.708417260464484,126,-5440,3750,-7599,6961,368,2417,3488,-5746,3669,4147,102,-4204,-94,-3923,834,4344
552,9.726273960394092,126,-5440,3750,-7599,6961,368,2417,3488,-5746,3669,4147,102,-4204,-94,-3923,834,4344
553,9.748781827092577,112,-1143,5578,-2937,1281,5754,6439,3237,-4664,-619,-3935,102,3201,7,2170,5098,4885
554,9.766339169102157,45,2491,-655,5269,-5341,1037,-5441,-5444,2034,-7477,-5121,49,-4624,42,-6651,27,-4315
555,9.785030222320298,-90,-7345,6195,-3558,4650,7169,-1743,5108,-7897,2645,3991,49,-6989,-44,-409,-4076,5605
556,9.8020281926736,35,6177,-1290,6854,-4026,6757,7327,-4928,-1477,2604,-8001,239,3686,17,2389,-712,-5736
557,9.818504852591884,44,1792,2226,315,777,7288,3382,1271,-5062,7496,7111,53,-8020,51,-5837,-8125,8038
558,9.834188641676267,58,-4144,5896,3514,7253,5914,-4982,803,-1257,2311,4554,112,6928,118,-657,7739,2986
559,9.852252753879037,58,-4144,5896,3514,7253,5914,-4982,803,-1257,2311,4554,112,6928,118,-657,7739,2986
560,9.867662844293681,58,-4144,5896,3514,7253,5914,-4982,803,-1257,2311,4554,112,6928,118,-657,7739,2986
561,9.88694192199759,58,-4144,5896,3514,7253,5914,-4982,803,-1257,2311,4554,112,6928,118,-657,7739,2986
562,9.9035605631008,-8,-523,-7292,-6331,-5410,-711,-4905,-780,3668,48,1178,59,3593,-76,5277,-4394,557
563,9.921562237794536,-33,-2518,-1594,127,1511,-909,-7129,1717,2188,-972,-2088,102,3238,53,6360,4323,3702
564,9.938818511267405,-6,6979,3223,-4986,-6672,-6257,5737,7231,1810,7647,6078,103,3461,-24,6214,-7263,-5939
565,9.95589944652997,-6,6979,3223,-4986,-6672,-6257,5737,7231,1810,7647,6078,103,3461,-24,6214,-7263,-5939
566,9.974848802867678,147,-5141,4207,-2049,720,1257,-7030,-1557,-739,187,-7388,125,6995,14,-4699,-151,3209
567,9.99238861105623,-61,-5833,-7120,1018,-3906,5329,-7468,6415,-5298,4385,7694,249,-3756,91,7075,-1546,2071
568,10.008037332498553,-27,4568,-2296,-242,-6276,-5287,1104,7133,-1833,5453,-7027,246,8101,-36,7429,-1284,-6862
569,10.025469371835893,-104,638,-1854,5746,-2707,7107,7830,2442,-5,-5521,-5413,243,-4066,-27,-7299,-1904,-177
570,10.042811176143056,128,7964,6215,1265,-3376,-5407,6035,1766,-6548,-5248,1519,124,-1471,79,-2047,-6221,2048
571,10.05920615411459,-101,5781,6548,-400,4431,-7116,7273,-5478,-5876,8150,1192,119,1103,97,-1232,680,-5781
572,10.074246751325086,-101,5781,6548,-400,4431,-7116,7273,-5478,-5876,8150,1192,119,1103,97,-1232,680,-5781
573,10.091701883987687,96,-4401,8003,-3772,5222,-2035,-3357,-7539,-7762,-2855,3259,123,5999,-47,-7854,3509,7479
574,10.112260930626796,-43,5855,-6914,-429,-7664,-5479,1714,-1577,-6070,-5308,-1029,244,6239,-21,1527,3951,-5386
575,10.132828102695163,-43,5855,-6914,-429,-7664,-5479,1714,-1577,-6070,-5308,-1029,244,6239,-21,1527,3951,-5386
576,10.155585719429784,-43,5855,-6914,-429,-7664,-5479,1714,-1577,-6070,-5308,-1029,244,6239,-21,1527,3951,-5386
577,10.173149476251936,30,5870,-2291,3499,1146,-1709,6427,2711,-4786,3164,2622,116,3926,141,-2888,3686,6422
578,10.19303368460847,-49,-5168,-4215,-1460,-7251,-2527,-4160,-5079,-2101,-6385,2295,49,1216,-63,-7119,5247,-6506
579,10.208768364539258,-49,-5168,-4215,-1460,-7251,-2527,-4160,-5079,-2101,-6385,2295,49,1216,-63,-7119,5247,-6506
580,10.226813232304313,-49,-5168,-4215,-1460,-7251,-2527,-4160,-5079,-2101,-6385,2295,49,1216,-63,-7119,5247,-6506
581,10.24441333973104,-2,7925,7200,-6310,-5739,8186,-4382,5935,-7270,-6809,-4712,234,7090,-71,2749,-1165,4950
582,10.261312521970734,146,1500,-3073,1215,2314,3209,5120,-312,-2503,2468,4255,55,-6179,93,-4813,2229,-1080
583,10.277856323593937,146,1500,-3073,1215,2314,3209,5120,-312,-2503,2468,4255,55,-6179,93,-4813,2229,-1080
584,10.293721865701194,146,1500,-3073,1215,2314,3209,5120,-312,-2503,2468,4255,55,-6179,93,-4813,2229,-1080
585,10.308803945366325,-91,3730,-7518,4788,-710,-1330,5156,1094,-6057,6737,636,57,4968,96,-8149,5331,6692
586,10.327659217786309,-96,3249,-3760,3348,7970,-3812,2726,-218,4060,-6119,-5044,20,992,11,-17,-4430,2670
587,10.343942150364917,3,-1668,-5752,-7028,-1850,-1583,-4681,-774,7560,3065,6222,28,-4934,-54,-6097,431,-6999
588,10.3608849533301,-83,2962,68,6720,-108,-1638,2641,3936,-2524,7549,1183,53,-121,7,-786,6410,-4555
589,10.378545359995005,-96,5451,6353,1397,6931,2015,3191,-980,-6426,-4119,-5797,92,7443,103,3130,-488,3364
590,10.396746321532644,-96,5451,6353,1397,6931,2015,3191,-980,-6426,-4119,-5797,92,7443,103,3130,-488,3364
591,10.415881279780768,24,4701,7764,5827,1539,4380,7976,1239,1712,120,-2966,254,-1026,78,7374,799,-7493
592,10.433578464704418,49,5740,-6007,-4920,6874,-7433,-4230,4369,6378,6243,4923,50,-2967,124,6532,6837,-4221
593,10.44989732023343,-1,-6003,2725,-5021,-2100,2089,7328,8026,-6972,1950,-7197,31,-7129,-99,-2636,-3058,-1496
594,10.465898856367215,-1,-6003,2725,-5021,-2100,2089,7328,8026,-6972,1950,-7197,31,-7129,-99,-2636,-3058,-1496
595,10.481565111630568,134,909,1595,-5658,-8009,1759,5390,7323,-708,4643,6451,31,-6894,98,1096,-2223,-5020
596,10.498107630291258,134,909,1595,-5658,-8009,1759,5390,7323,-708,4643,6451,31,-6894,98,1096,-2223,-5020
597,10.514029622749149,143,-1457,-3009,7718,1073,6635,-4046,-399,-5513,272,5554,31,-7765,-25,3328,-3431,-4920
598,10.530037146041334,143,-1457,-3009,7718,1073,6635,-4046,-399,-5513,272,5554,31,-7765,-25,3328,-3431,-4920
599,10.549125489984768,-18,-5550,-7038,3083,4305,-6259,-5676,7331,-2725,6784,-5116,127,3551,-52,1240,7363,864
600,10.566282547689855,113,3541,-4896,-5620,-256,6522,340,3743,-6472,-2638,-6790,27,5062,53,2276,2081,3610
601,10.583976739034306,113,3541,-4896,-5620,-256,6522,340,3743,-6472,-2638,-6790,27,5062,53,2276,2081,3610
602,10.603946050570961,113,3541,-4896,-5620,-256,6522,340,3743,-6472,-2638,-6790,27,5062,53,2276,2081,3610
603,10.622115365699912,113,3541,-4896,-5620,-256,6522,340,3743,-6472,-2638,-6790,27,5062,53,2276,2081,3610
604,10.64884503437912,5,-307,2082,-5225,3826,-3756,3285,88,471,-2888,-4879,27,1708,-77,-5011,3908,-5376
605,10.666062391322384,5,-307,2082,-5225,3826,-3756,3285,88,471,-2888,-4879,27,1708,-77,-5011,3908,-5376
606,10.68251895149461,-69,-5940,-5612,-5067,-5567,-6132,2424,1673,4187,-7991,-357,27,5865,110,3139,5807,-6850
607,10.698162968741046,2,5613,2344,-362,-2429,-2476,2522,-3704,-5151,3193,599,251,-3049,32,1381,5194,-6235
608,10.71631603301148,9,5552,3503,-7751,6929,3636,-4636,-5706,3914,-4326,-5309,251,3593,-23,-4172,-5730,2526
609,10.73636189464483,9,5552,3503,-7751,6929,3636,-4636,-5706,3914,-4326,-5309,251,3593,-23,-4172,-5730,2526
610,10.756275611139193,-44,705,-7075,-7148,4183,-5044,1768,-1450,4643,-4,-8129,17,-7871,137,4747,5522,6579
611,10.780554393761722,-67,-1001,-5802,7317,1422,6629,-7357,-4158,-4128,-4462,-3072,233,-2940,-48,-2744,947,5980
612,10.799903606749751,-31,6725,5866,4047,-36,-7002,-565,7318,3342,-3956,-3848,233,-6101,-106,3218,8012,4912
613,10.820619602469788,91,7281,3280,-4977,4186,5605,-7562,7737,1068,-4040,-6985,230,-1232,-67,43,-7338,1512
614,10.841005021515281,-37,-626,2848,5175,3737,-1804,-4250,3384,-3599,-2363,4823,102,-7039,131,2619,-7725,-7560
615,10.860712181044828,-37,-626,2848,5175,3737,-1804,-4250,3384,-3599,-2363,4823,102,-7039,131,2619,-7725,-7560
616,10.879829177817749,-37,-626,2848,5175,3737,-1804,-4250,3384,-3599,-2363,4823,102,-7039,131,2619,-7725,-7560
617,10.898350024675645,78,-2067,-2104,-7310,-5344,-1096,2209,-357,-8011,4240,4851,92,-6284,76,4686,6766,-1591
618,10.917206152403972,110,3699,-5999,7603,-7223,5401,-7224,2092,-4174,-1237,-201,95,3609,54,-6971,2891,425
619,10.935249737206512,44,-7358,3539,540,-3764,6834,7575,-1401,-2225,-4670,596,225,-3582,-66,-7231,-7448,4064
620,10.955451264958274,44,-7358,3539,540,-3764,6834,7575,-1401,-2225,-4670,596,225,-3582,-66,-7231,-7448,4064
621,10.971940754501702,9,-7166,-2240,-7807,365,-6253,-1146,3584,-6652,-543,-7588,38,-305,40,-6178,-2355,-5848
622,10.989737582847305,9,-7166,-2240,-7807,365,-6253,-1146,3584,-6652,-543,-7588,38,-305,40,-6178,-2355,-5848
623,11.006727427771349,19,7316,8106,3466,3303,-1326,-131,5926,-3564,3106,1902,241,3317,141,4463,-7746,-1177
624,11.026624465753025,66,882,-3111,63,3489,1370,7768,1804,-5086,6886,3632,82,232,-36,-2063,2987,7861
625,11.044172827025006,66,882,-3111,63,3489,1370,7768,1804,-5086,6886,3632,82,232,-36,-2063,2987,7861
626,11.062570509481521,85,1754,5729,-6205,6259,-3843,-2084,-3401,-4653,-3759,7810,120,7030,95,-3427,-1805,3889
627,11.080163346787334,85,1754,5729,-6205,6259,-3843,-2084,-3401,-4653,-3759,7810,120,7030,95,-3427,-1805,3889
628,11.096386835436109,-75,-6267,351,1591,-932,2487,-3660,-347,8141,3951,2549,97,-3804,62,-889,7174,-5096
629,11.113451092185988,72,-6765,3174,5046,-7510,-7390,4594,-8118,6612,7171,2160,255,-7426,93,3701,-1261,6105
630,11.129953839008731,92,672,-4361,1030,-1779,6279,7559,-2238,-7021,6103,6698,122,682,-76,-3154,1506,-4102
631,11.15281537570702,92,672,-4361,1030,-1779,6279,7559,-2238,-7021,6103,6698,122,682,-76,-3154,1506,-4102
632,11.173685326928785,92,672,-4361,1030,-1779,6279,7559,-2238,-7021,6103,6698,122,682,-76,-3154,1506,-4102
633,11.19196711510483,106,2478,7588,5988,2844,-4963,-3769,2318,-3273,-2451,-3963,16,2718,19,-5466,5625,-5665
634,11.209615547452934,-47,4098,-1499,-6862,-2109,7058,-7763,-7251,1354,4966,2589,81,-6172,-84,-2430,-2320,3692
635,11.229909448505733,-96,-5651,6212,-7746,-2667,-6365,-6710,-3275,8069,1824,7643,122,-6932,49,6826,-2188,-3830
636,11.247414189052224,-22,1545,2586,-3269,6162,-769,1758,-7758,8086,5791,36,116,5036,-73,4516,-2172,7944
637,11.263789067277699,-22,1545,2586,-3269,6162,-769,1758,-7758,8086,5791,36,116,5036,-73,4516,-2172,7944
638,11.280893523519696,-22,1545,2586,-3269,6162,-769,1758,-7758,8086,5791,36,116,5036,-73,4516,-2172,7944
639,11.29683091152776,-22,1545,2586,-3269,6162,-769,1758,-7758,8086,5791,36,116,5036,-73,4516,-2172,7944
640,11.31290386590818,141,-222,540,-6351,-3703,4385,4099,2073,1316,-7315,-2392,47,-513,103,-330,3323,6345
641,11.328829279599441,141,-222,540,-6351,-3703,4385,4099,2073,1316,-7315,-2392,47,-513,103,-330,3323,6345
642,11.345204157824917,107,7710,-61,4784,6823,-5915,-396,433,-7899,3564,7395,34,-3427,-82,-4527,7711,1726
643,11.361948529254539,107,7710,-61,4784,6823,-5915,-396,433,-7899,3564,7395,34,-3427,-82,-4527,7711,1726
644,11.380078500199714,-29,4679,6156,6420,2018,2820,-5410,7247,-1538,7270,-4704,87,-5152,-86,3522,3665,7697
645,11.397743611060505,113,7659,-6301,2400,-6206,3438,6010,1804,-2532,-2843,4035,87,7423,27,-7919,7296,4874
646,11.415205158535677,113,7659,-6301,2400,-6206,3438,6010,1804,-2532,-2843,4035,87,7423,27,-7919,7296,4874
647,11.433932562358393,113,7659,-6301,2400,-6206,3438,6010,1804,-2532,-2843,4035,87,7423,27,-7919,7296,4874
648,11.452119838962545,113,7659,-6301,2400,-6206,3438,6010,1804,-2532,-2843,4035,87,7423,27,-7919,7296,4874
649,11.470366987150703,27,6560,-3795,-2664,-3207,3985,-5431,-1598,-6332,1040,-5231,22,-5909,-90,7138,-3580,7462
650,11.487321336778516,27,6560,-3795,-2664,-3207,3985,-5431,-1598,-6332,1040,-5231,22,-5909,-90,7138,-3580,7462
651,11.503483243226599,-31,5048,-5638,7818,7199,2953,1128,5623,-7637,3847,7694,20,5666,-23,-3891,-5304,-7354
652,11.51924785894939,-31,5048,-5638,7818,7199,2953,1128,5623,-7637,3847,7694,20,5666,-23,-3891,-5304,-7354
653,11.534793943390563,-60,6194,-5298,1828,1390,3851,-999,-7036,1783,-2162,-6223,111,-7268,36,-4534,-2194,-4455
654,11.551608022450134,18,-2822,5009,3534,-4936,4808,-2367,-8086,2951,717,-6028,227,2993,-67,-3957,7406,1950
655,11.569750395366281,18,-2822,5009,3534,-4936,4808,-2367,-8086,2951,717,-6028,227,2993,-67,-3957,7406,1950
656,11.58636860881532,40,-7396,-2382,-5109,-7975,7727,-3673,-4179,6338,-4942,3046,48,7722,121,-5921,-957,-7576
657,11.605450965600355,-2,3556,8001,-262,-5138,-460,-7293,6173,4132,-4672,7315,249,2292,-34,7088,-2587,-7484
658,11.622796191140887,-2,3556,8001,-262,-5138,-460,-7293,6173,4132,-4672,7315,249,2292,-34,7088,-2587,-7484
659,11.64373200110506,86,-4380,-3665,-150,42,6356,7900,454,4664,1367,3523,102,-5002,73,2710,5436,-2621
660,11.667776856895795,86,-4380,-3665,-150,42,6356,7900,454,4664,1367,3523,102,-5002,73,2710,5436,-2621
661,11.68373220637906,86,-4380,-3665,-150,42,6356,7900,454,4664,1367,3523,102,-5002,73,2710,5436,-2621
662,11.7004928286672,147,-6446,1977,6704,4356,5226,4169,592,-1645,4917,2959,102,2565,-45,-1344,-799,1243
663,11.719684664920127,51,6739,3111,3283,-2487,4511,1976,7723,-664,3859,6142,102,-71,-62,-6202,5484,-6157
664,11.7373185570264,122,-7231,-135,4702,8,3655,1373,7168,-2917,-2413,-4687,51,-713,-13,-266,-1514,-1161
665,11.756004478394484,-41,-3638,-6007,-2503,-6339,2658,376,97,8082,-7967,-6679,51,-5315,-64,2741,-6770,-1671
666,11.773276147417524,-41,-3638,-6007,-2503,-6339,2658,376,97,8082,-7967,-6679,51,-5315,-64,2741,-6770,-1671
667,11.793573042049523,-56,4957,3086,-1096,3274,-467,-1857,5472,-6822,5424,-6963,51,3174,143,-3314,-1735,262
668,11.810139509343816,-56,4957,3086,-1096,3274,-467,-1857,5472,-6822,5424,-6963,51,3174,143,-3314,-1735,262
669,11.831611597639007,-56,4957,3086,-1096,3274,-467,-1857,5472,-6822,5424,-6963,51,3174,143,-3314,-1735,262
670,11.850029807495751,143,-5955,3368,-1997,2757,-3040,7621,271,4490,-5607,-6152,84,-5633,108,2520,861,6955
671,11.868736683918236,-76,6773,-5352,-464,-2103,-7219,2649,7070,-2513,6284,-7488,84,6670,71,-1884,-3853,5141
672,11.886049407741737,-78,356,-1203,6447,-5729,-5680,-2837,-6404,7468,4980,84,84,7648,123,4581,-5188,3655
673,11.903240250126371,-78,356,-1203,6447,-5729,-5680,-2837,-6404,7468,4980,84,84,7648,123,4581,-5188,3655
674,11.92039730783146,22,7061,5726,5460,-3128,5239,-5007,-7107,-1055,-1850,5452,231,882,40,2952,7995,-4744
675,11.9352724028776,117,7108,5701,242,5365,4924,-2834,2017,-7662,2791,8172,31,1820,-38,396,-2351,-6145
676,11.951729390703996,36,726,-6094,-8176,-5060,-5479,6116,1495,4430,-4205,-4185,234,-3718,-33,-1047,-2456,3010
677,11.968609328505973,-72,-4542,-6785,-5299,-6604,-2056,-915,-802,-6414,-6643,7137,109,5702,-71,5212,230,4817
678,11.98505776324894,-72,-4542,-6785,-5299,-6604,-2056,-915,-802,-6414,-6643,7137,109,5702,-71,5212,230,4817
679,12.004229072101637,-17,4931,-3430,-988,6482,3919,4485,8129,6073,6651,-8099,224,-3800,-67,-1848,3300,-295
680,12.023096746492595,-66,-4310,-7254,-3118,-4489,7144,-3883,-6979,2370,-7506,3811,120,-885,-24,8016,945,2405
681,12.04220305191123,84,7973,-40,6546,5371,2591,-6333,-4446,3189,-2828,-6810,101,4154,-27,2810,6182,-7232
682,12.061144282819678,144,-1408,-7054,-6720,-793,3161,5600,-2283,254,-1677,6608,101,1845,104,-6981,-5951,5610
683,12.079892214042623,35,-3087,6363,-2233,-1333,3539,-3660,-6719,-6477,-4832,949,225,-6943,87,3301,1592,-1937
684,12.097079207539714,-6,-5969,2764,-4714,6215,3629,1630,-3401,-6204,5278,4786,244,-3888,96,-5109,-6835,-954
685,12.114412458763447,83,-7956,4891,5995,-3723,-6957,7418,-3296,4897,-750,-890,244,-173,101,-1985,-804,-3145
686,12.1322969562142,83,-7956,4891,5995,-3723,-6957,7418,-3296,4897,-750,-890,244,-173,101,-1985,-804,-3145
687,12.16123118214732,66,1321,1162,4522,1245,1476,-6103,6585,-2266,2042,6225,255,6859,122,3884,5715,-5863
688,12.179208480553282,66,1321,1162,4522,1245,1476,-6103,6585,-2266,2042,6225,255,6859,122,3884,5715,-5863
689,12.194599754184383,133,-2897,5690,-6143,-4546,-2298,-7233,5397,-7329,5362,6152,235,1653,-11,-7508,1782,-563
690,12.209523601806069,133,-2897,5690,-6143,-4546,-2298,-7233,5397,-7329,5362,6152,235,1653,-11,-7508,1782,-563
691,12.229795264841952,133,-2897,5690,-6143,-4546,-2298,-7233,5397,-7329,5362,6152,235,1653,-11,-7508,1782,-563
692,12.24648019234174,53,-6798,4098,-6810,6584,-3690,918,1034,-5117,5287,-2679,110,-5005,-96,6095,-3911,7574
693,12.265810160892052,93,1561,3378,-6957,-895,1919,-7459,-3880,901,-7805,-326,110,4370,8,3905,-1643,-7012
694,12.284481114364134,95,2632,3978,3079,-7336,-6569,-6841,-4324,1256,-2713,-6704,52,-4575,113,-1713,-16,-3758
695,12.30352925881545,70,-3622,-4517,-7197,4996,3822,6206,-2494,-2417,808,-4680,52,-6310,-67,4281,-1835,-6133
696,12.321163150921723,70,-3622,-4517,-7197,4996,3822,6206,-2494,-2417,808,-4680,52,-6310,-67,4281,-1835,-6133
697,12.337808734237736,137,1753,-7194,7786,6819,7505,2963,1799,-5948,1266,7420,242,-1802,59,3693,-4593,-814
698,12.353981332040107,137,1753,-7194,7786,6819,7505,2963,1799,-5948,1266,7420,242,-1802,59,3693,-4593,-814
699,12.3704023969161,116,-7938,5314,7039,1070,-934,4866,5782,-3219,4527,5590,52,1500,-15,-3637,49,8062
700,12.38687478029267,125,3225,-2267,-2388,-2051,-3891,3933,-2607,-63,-2497,4333,109,-7494,141,-2077,-5060,-194
701,12.403437398699419,74,6512,7567,207,-3133,-955,7032,6363,4581,5333,-3135,225,204,29,3314,-2596,6884
702,12.420071435352801,74,6512,7567,207,-3133,-955,7032,6363,4581,5333,-3135,225,204,29,3314,-2596,6884
703,12.436999698076155,74,6512,7567,207,-3133,-955,7032,6363,4581,5333,-3135,225,204,29,3314,-2596,6884
704,12.454415058900809,-24,2635,-4764,3458,-254,-1161,-3867,514,-387,-6176,2124,62,-1826,64,3299,-3662,1177
705,12.472050233969597,-24,2635,-4764,3458,-254,-1161,-3867,514,-387,-6176,2124,62,-1826,64,3299,-3662,1177
706,12.490002300779443,145,-3833,-2538,-3362,1035,-5790,2738,-1826,8138,-7422,7530,92,-7530,16,-293,-4720,-6937
707,12.508931985025262,-64,-6743,-4939,4554,657,-83,-1917,-3462,7925,-3304,-1411,89,6238,75,4744,-2342,-2446
708,12.527540073334137,-64,-6743,-4939,4554,657,-83,-1917,-3462,7925,-3304,-1411,89,6238,75,4744,-2342,-2446
709,12.543015167182846,-64,-6743,-4939,4554,657,-83,-1917,-3462,7925,-3304,-1411,89,6238,75,4744,-2342,-2446
710,12.559752696145724,-64,-6743,-4939,4554,657,-83,-1917,-3462,7925,-3304,-1411,89,6238,75,4744,-2342,-2446
711,12.576039477611877,-102,4218,-2354,1133,6859,1249,4268,-6685,1938,-3243,-5316,226,-2750,77,-7344,4220,752
712,12.591428185317948,-34,-3727,6454,-4989,-3318,458,-1055,4658,4450,2349,-2078,125,3742,58,1631,-372,-7821
713,12.607517818211054,144,5231,-7195,-5220,-3548,-3299,1711,5956,-1966,-8154,-4105,51,5984,21,-1813,6896,3717
714,12.62356083679947,-23,4819,-8133,-3625,2069,1248,4323,5542,-6424,1773,-6484,51,1954,115,-1289,5664,-6499
715,12.642895081891497,86,5482,2085,-3929,5451,-8162,7384,7850,-4940,5733,7415,83,4708,-13,2497,5021,-3646
716,12.668345636943846,86,5482,2085,-3929,5451,-8162,7384,7850,-4940,5733,7415,83,4708,-13,2497,5021,-3646
717,12.685306829038403,-85,-904,-1726,-1763,-2411,7338,-4003,-1337,1536,-1948,-2082,28,-6780,-72,6216,498,-7259
718,12.702722617517228,-20,-6424,7863,4788,-33,1238,199,-4911,4853,-5467,8112,245,-3761,-87,-6996,1790,5619
719,12.72230319141202,-105,2275,8116,-1531,-2387,-5332,3357,5389,-5618,-7744,4550,238,8115,5,6276,-1066,7111
720,12.74282759806324,88,5971,-1868,-3286,2847,-6852,226,485,-17,-6922,-3261,46,7918,-45,4943,8045,-1918
721,12.760570541983238,88,5971,-1868,-3286,2847,-6852,226,485,-17,-6922,-3261,46,7918,-45,4943,8045,-1918
722,12.779252186809606,-86,2425,1184,-2974,-668,-6602,-3594,2136,-7217,4801,-5357,46,7006,-92,-4554,3858,-6999
723,12.795511170754613,-68,-6469,4883,5709,-5963,-7538,-7350,7018,7268,6991,-7394,96,3126,-17,6417,-1624,-972
724,12.810826749597364,-48,-784,1085,5927,-130,1357,223,6728,-7851,7656,-2117,229,6336,34,-947,-726,4295
725,12.82657810804084,130,1621,1334,-1544,-2969,-851,-2926,-6266,7847,-4823,-4868,242,5288,147,-1062,-170,7379
726,12.851413268740448,69,-2604,2497,-4458,-6735,-2950,423,6393,6865,5125,-3561,110,7074,41,6226,-287,-6766
727,12.869954642998573,69,-2604,2497,-4458,-6735,-2950,423,6393,6865,5125,-3561,110,7074,41,6226,-287,-6766
728,12.888369431621946,95,-7346,2058,4354,-3856,-1946,-5709,-3446,-5474,6653,5564,110,3319,9,-7130,4316,-6356
729,12.906263337464473,95,-7346,2058,4354,-3856,-1946,-5709,-3446,-5474,6653,5564,110,3319,9,-7130,4316,-6356
730,12.922972213597863,95,-7346,2058,4354,-3856,-1946,-5709,-3446,-5474,6653,5564,110,3319,9,-7130,4316,-6356
731,12.941401542463066,63,-4881,4125,-1273,-4673,7979,-2946,-8054,1258,5138,4953,90,1794,23,-5723,-1405,329
732,12.957164875223343,63,-4881,4125,-1273,-4673,7979,-2946,-8054,1258,5138,4953,90,1794,23,-5723,-1405,329
733,12.972324360293507,-105,-1885,1305,1423,-2379,4947,4229,-7445,517,3880,5052,83,2885,-57,3646,-2167,-2481
734,12.989157256136624,71,2186,-2400,-3744,5525,5129,3462,-2744,1233,4729,2201,234,7096,104,8185,97,4898
735,13.004581031484756,71,2186,-2400,-3744,5525,5129,3462,-2744,1233,4729,2201,234,7096,104,8185,97,4898
736,13.020239161318852,14,82,1472,-7244,7471,-1495,-2743,6813,4994,-4932,-2674,235,4460,-69,-8044,-7226,-7437
737,13.037861506762495,-83,-1827,254,1985,-2347,1050,-3233,6768,-6011,2723,-1032,242,4362,-9,-1995,7091,-383
738,13.055214430078115,-83,-1827,254,1985,-2347,1050,-3233,6768,-6011,2723,-1032,242,4362,-9,-1995,7091,-383
739,13.07356891946331,-92,-4798,-7318,-4963,388,-2580,7634,6851,-6303,-6925,-7849,16,-3080,50,-8190,-4131,-920
740,13.092696179936349,-92,-4798,-7318,-4963,388,-2580,7634,6851,-6303,-6925,-7849,16,-3080,50,-8190,-4131,-920
741,13.110794932127007,-92,-4798,-7318,-4963,388,-2580,7634,6851,-6303,-6925,-7849,16,-3080,50,-8190,-4131,-920
742,13.129339727618506,14,5355,-3022,-615,-5385,-2068,554,-4404,4934,4420,-3450,225,1042,20,1146,2804,643
743,13.149216665854123,14,5355,-3022,-615,-5385,-2068,554,-4404,4934,4420,-3450,225,1042,20,1146,2804,643
744,13.172564017691197,124,2676,-6539,2341,79,-7679,-6900,7464,8184,-7260,-5491,122,-7707,-10,-109,-5485,-4378
745,13.190170539930497,25,-6958,-6495,2792,-5836,4999,516,-6405,-3226,1923,4020,244,4724,14,1999,-2523,3358
746,13.206316623174237,25,-6958,-6495,2792,-5836,4999,516,-6405,-3226,1923,4020,244,4724,14,1999,-2523,3358
747,13.221549664761895,-72,5076,2045,4541,-2277,-5987,-6814,-6608,-7319,5122,2392,112,2746,108,-2829,-3558,4463
748,13.237253981246509,-105,-8049,-5344,-5310,-6295,-626,1000,6212,4211,-182,-1555,21,-291,82,7498,-2829,3463
749,13.25474418155117,-97,-5590,4855,1165,984,8060,4992,3433,-2257,5304,-7458,107,4927,98,-6784,8140,-7644
750,13.272770232532679,24,4013,-2729,-307,-974,7856,960,7526,3528,-502,-4110,255,-6115,60,5573,-998,6193
751,13.291766630829247,24,4013,-2729,-307,-974,7856,960,7526,3528,-502,-4110,255,-6115,60,5573,-998,6193
752,13.308713710336145,24,4013,-2729,-307,-974,7856,960,7526,3528,-502,-4110,255,-6115,60,5573,-998,6193
753,13.326669198379362,61,-7743,-7495,6879,6692,-4465,-2269,1000,-792,3452,3363,110,5815,-46,7854,2054,2320
754,13.344235521126544,37,1032,2476,-1808,40,7472,3511,7671,-6446,-3866,-6748,62,-2690,120,3734,5134,6098
755,13.362539974973679,113,-1389,7118,-4289,-5808,245,916,4460,2021,-2523,4543,250,-7876,-77,6880,2234,2635
756,13.381963599787541,12,1613,1593,4080,-3529,681,-4625,4818,7543,7950,3117,91,-3331,-82,-4074,-1668,3205
757,13.398045962559733,12,1613,1593,4080,-3529,681,-4625,4818,7543,7950,3117,91,-3331,-82,-4074,-1668,3205
758,13.412950138089531,12,1613,1593,4080,-3529,681,-4625,4818,7543,7950,3117,91,-3331,-82,-4074,-1668,3205
759,13.428318746049545,12,1613,1593,4080,-3529,681,-4625,4818,7543,7950,3117,91,-3331,-82,-4074,-1668,3205
760,13.444691486004162,-68,6112,-2838,-3690,6489,-7256,7060,-4230,-3969,-5171,-8098,96,-1506,-13,-186,7277,-7767
761,13.463190950153486,-68,6112,-2838,-3690,6489,-7256,7060,-4230,-3969,-5171,-8098,96,-1506,-13,-186,7277,-7767
762,13.480774806721698,45,-3090,6121,2953,-347,-6674,6482,5833,2503,6100,1091,248,314,-80,-6694,-2742,-7809
763,13.498055456482339,33,8029,-7481,3271,1303,-3982,6714,-5045,4676,-2420,-113,121,-2306,68,139,923,4335
764,13.514412373232613,12,5295,7658,-6856,6089,-7003,4646,-4674,2296,-5215,-4235,121,6995,-70,-4394,-4566,-3417
765,13.532210056886559,12,5295,7658,-6856,6089,-7003,4646,-4674,2296,-5215,-4235,121,6995,-70,-4394,-4566,-3417
766,13.549268326478037,12,5295,7658,-6856,6089,-7003,4646,-4674,2296,-5215,-4235,121,6995,-70,-4394,-4566,-3417
767,13.567970071050464,137,-1393,5860,-3194,-7811,-1399,4784,7880,3258,-3733,3567,21,-8100,11,7876,-1337,-7240
768,13.5836081011385,137,-1393,5860,-3194,-7811,-1399,4784,7880,3258,-3733,3567,21,-8100,11,7876,-1337,-7240
769,13.600964873341663,75,-3793,-5410,7591,-6741,2665,5714,8191,4702,-1359,1774,237,3653,-1,-6074,8144,-2015
770,13.61696726478379,24,3570,8105,-5291,-5968,-6397,2964,-5425,-6542,-4305,6440,51,4878,53,5044,-1838,2587
771,13.632860176758022,-20,7302,5145,-4487,6366,-2542,2559,-893,-7572,-2561,2248,50,-3147,-84,-2303,7270,-2389
772,13.65011345665169,146,-3248,4865,-5042,4586,1766,3675,4469,-4447,5330,4836,231,-7536,48,5035,-1456,-6276
773,13.675192380229035,146,-3248,4865,-5042,4586,1766,3675,4469,-4447,5330,4836,231,-7536,48,5035,-1456,-6276
774,13.700199885559744,20,-2997,-6459,983,-4758,6304,-4378,-4195,-4196,1916,2317,92,4832,13,-5170,7259,174
775,13.718403840676583,63,5912,6586,-6926,-1203,4831,-5749,6762,4388,-2121,-5734,55,-146,-74,-1881,-8028,903
776,13.737348492818404,63,5912,6586,-6926,-1203,4831,-5749,6762,4388,-2121,-5734,55,-146,-74,-1881,-8028,903
777,13.756465489591324,63,5912,6586,-6926,-1203,4831,-5749,6762,4388,-2121,-5734,55,-146,-74,-1881,-8028,903
778,13.775785622095693,31,-2393,-6384,5305,4585,103,-6706,-3431,-4634,-4796,2953,118,1042,99,7222,-1739,654
779,13.792746386536079,22,-5685,-6851,-3175,7302,-4000,682,751,-7891,-6656,-4910,120,-8117,-103,-5937,-5019,-2610
780,13.80831898553588,22,-5685,-6851,-3175,7302,-4000,682,751,-7891,-6656,-4910,120,-8117,-103,-5937,-5019,-2610
781,13.823469917522617,22,-5685,-6851,-3175,7302,-4000,682,751,-7891,-6656,-4910,120,-8117,-103,-5937,-5019,-2610
782,13.839089130827109,22,-5685,-6851,-3175,7302,-4000,682,751,-7891,-6656,-4910,120,-8117,-103,-5937,-5019,-2610
783,13.855795868689642,22,-5685,-6851,-3175,7302,-4000,682,751,-7891,-6656,-4910,120,-8117,-103,-5937,-5019,-2610
784,13.872668536370705,22,-5685,-6851,-3175,7302,-4000,682,751,-7891,-6656,-4910,120,-8117,-103,-5937,-5019,-2610
785,13.891250965429291,22,-5685,-6851,-3175,7302,-4000,682,751,-7891,-6656,-4910,120,-8117,-103,-5937,-5019,-2610
786,13.909127765104959,19,-907,6214,5983,4931,4803,-5137,7486,1346,-7660,7818,120,736,97,-5415,-4231,-4384
787,13.927169211636642,-48,-6450,-7604,-7819,-309,-7039,2957,5489,1475,-2088,-5143,251,-5168,85,-7748,6459,6925
788,13.943796833477453,95,6796,-1910,-3527,6596,7418,-6094,4466,-7143,6715,7584,111,-7602,-103,2876,-4287,-1621
789,13.961448687058928,-71,-7780,-2563,-2432,1984,5757,-7640,8064,8182,-7578,2477,252,-4785,-90,-1836,-3303,2926
790,13.978978659201536,-71,-7780,-2563,-2432,1984,5757,-7640,8064,8182,-7578,2477,252,-4785,-90,-1836,-3303,2926
791,13.995994163375867,-71,-7780,-2563,-2432,1984,5757,-7640,8064,8182,-7578,2477,252,-4785,-90,-1836,-3303,2926
792,14.01270346716343,-67,-5013,537,5379,-1752,7829,-7922,4362,6292,-7519,-156,118,-7627,6,-5492,4420,5136
793,14.028495452753194,-67,-5013,537,5379,-1752,7829,-7922,4362,6292,-7519,-156,118,-7627,6,-5492,4420,5136
794,14.044514095053838,73,-7355,-3112,-3419,4110,-2920,-1491,-3760,4252,-50,-685,124,-2817,68,6903,5174,-5980
795,14.060100378987126,7,-3410,-4894,-2889,-1193,861,893,1698,3311,-2731,3739,124,4943,107,-2758,722,3065
796,14.075799991275854,15,-3746,5373,-5805,3304,-7306,503,-4527,8137,-7771,3642,246,-7383,-11,-2719,525,1305
797,14.095014920854043,31,-7645,-421,2569,-6067,478,3787,-7454,4856,-5045,1990,82,531,10,6045,-1946,2073
798,14.112783524024328,38,6669,2790,-2850,5557,4617,-828,1310,-1186,1651,-6989,109,-2942,-84,-5345,-4959,-1703
799,14.130176646832066,-54,-4240,-7581,6189,-3137,-3658,-4342,263,1220,3562,-4944,97,6898,-91,-1652,370,7952
800,14.149330849517906,41,7544,-1331,5477,-3519,-2510,4714,7937,-6246,-2671,6424,226,-5973,-106,788,3630,-7590
801,14.175073492369366,41,7544,-1331,5477,-3519,-2510,4714,7937,-6246,-2671,6424,226,-5973,-106,788,3630,-7590
802,14.196573378185702,41,7544,-1331,5477,-3519,-2510,4714,7937,-6246,-2671,6424,226,-5973,-106,788,3630,-7590
803,14.212233218636484,41,7544,-1331,5477,-3519,-2510,4714,7937,-6246,-2671,6424,226,-5973,-106,788,3630,-7590
804,14.229065686825429,41,7544,-1331,5477,-3519,-2510,4714,7937,-6246,-2671,6424,226,-5973,-106,788,3630,-7590
805,14.245356744833297,-79,-7986,-2649,-4472,7019,-6859,6247,2366,6029,-1645,6721,58,-3973,18,7577,-5090,1168
806,14.262517223771756,-58,409,-1691,3761,4974,3781,-1759,-6454,4241,-731,-1101,249,8070,69,-3435,-773,-6361
807,14.279636220255583,139,2033,7728,-1797,118,6628,5621,1181,4755,7257,3808,37,7445,123,-8095,-4638,-1474
808,14.295593708009706,89,3326,470,-1031,-7226,171,249,-7826,4204,-6573,-3221,37,-2307,128,6647,3951,1680
809,14.314512273247066,89,3326,470,-1031,-7226,171,249,-7826,4204,-6573,-3221,37,-2307,128,6647,3951,1680
810,14.333711807275082,89,3326,470,-1031,-7226,171,249,-7826,4204,-6573,-3221,37,-2307,128,6647,3951,1680
811,14.351369648014957,-103,-571,-8123,-4130,-1516,-5677,-2836,3648,-7634,1272,7654,97,-1819,-70,3817,-6828,24
812,14.369594130532027,121,1003,-656,-2606,210,-7835,4092,3871,-203,6885,5158,95,-3095,-61,4366,-158,-8188
813,14.388079482093692,34,-4934,5354,-2011,8078,-4035,-2920,-6632,-8119,-296,201,95,1264,-106,3507,-1551,-3732
814,14.407252929217247,16,-56,-5030,-6888,-6348,-4073,-528,-1469,6867,-7692,1714,232,6059,86,5896,-5472,-5821
815,14.425415829533627,-54,-6432,-3605,2577,-3959,-3393,2990,-5218,5994,3965,-4144,83,6642,-53,-7848,-627,2581
816,14.44365912883424,145,7880,-469,6812,-987,-3644,6118,-1620,2915,-4842,2533,126,7818,-55,-6182,3141,2948
817,14.463364150092929,5,-7472,1079,-2900,-4427,1675,-7946,7550,-8178,4697,-2389,19,-3143,102,6356,4968,2514
818,14.482579507325289,5,-7472,1079,-2900,-4427,1675,-7946,7550,-8178,4697,-2389,19,-3143,102,6356,4968,2514
819,14.50157120142597,-35,5515,-7756,-7092,5205,-7615,2393,-7245,5030,3022,-1934,27,-4063,-29,1988,1619,-6798
820,14.521967739479921,-35,5515,-7756,-7092,5205,-7615,2393,-7245,5030,3022,-1934,27,-4063,-29,1988,1619,-6798
821,14.543158858984459,135,446,-5499,7005,5369,4483,1041,7341,983,-3264,-3178,232,-4285,-31,-1130,2366,-3793
822,14.565417403300977,135,446,-5499,7005,5369,4483,1041,7341,983,-3264,-3178,232,-4285,-31,-1130,2366,-3793
823,14.587149932986591,-94,-3315,5756,5441,-6472,5257,7769,-7973,6118,-2556,4667,104,-8119,11,2580,-4198,7910
824,14.60856856451035,-48,6819,-3441,-6171,6546,-4140,5759,-3889,-3658,-519,-437,121,1912,91,6596,2938,5501
825,14.629555692975096,-48,6819,-3441,-6171,6546,-4140,5759,-3889,-3658,-519,-437,121,1912,91,6596,2938,5501
826,14.64935265988065,123,-5244,6312,-862,2737,199,-3413,2952,-5808,1924,-1849,96,6430,-23,-5415,-6739,2651
827,14.67439566050759,123,-5244,6312,-862,2737,199,-3413,2952,-5808,1924,-1849,96,6430,-23,-5415,-6739,2651
828,14.69744151615378,-100,7247,59,-2345,484,-1989,4307,1740,5653,-7412,-4198,244,-8068,49,-1480,3740,-5031
829,14.717014819927657,113,7288,-2736,-5559,312,-4456,-65,-7798,5607,286,7070,244,-3514,6,-5033,720,-2544
830,14.73869731407521,121,-2153,771,-7790,-1260,570,4808,-395,-7919,-5934,-3002,60,5965,31,-350,1780,-4033
831,14.755590936810675,71,6364,6854,6529,-6041,-5510,-3917,1972,474,-1676,-7177,59,-1453,144,-6758,4938,-6501
832,14.772752698711649,71,6364,6854,6529,-6041,-5510,-3917,1972,474,-1676,-7177,59,-1453,144,-6758,4938,-6501
833,14.79004489513492,71,6364,6854,6529,-6041,-5510,-3917,1972,474,-1676,-7177,59,-1453,144,-6758,4938,-6501
834,14.808324117385938,-54,2049,-5929,-78,-3791,5683,3071,2571,62,7625,927,59,2481,-18,474,2339,-8148
835,14.825796783869569,100,1583,3181,7728,3395,4870,-1534,4773,7383,-3044,2454,35,-5526,51,-995,-2117,-999
836,14.841709367935687,100,1583,3181,7728,3395,4870,-1534,4773,7383,-3044,2454,35,-5526,51,-995,-2117,-999
837,14.857056593187126,-3,3128,3700,2253,-7806,-1568,6432,6834,-7315,-3457,1515,100,-5828,77,3974,6705,7999
838,14.873064971787654,-3,3128,3700,2253,-7806,-1568,6432,6834,-7315,-3457,1515,100,-5828,77,3974,6705,7999
839,14.891080331414877,-3,3128,3700,2253,-7806,-1568,6432,6834,-7315,-3457,1515,100,-5828,77,3974,6705,7999
840,14.906284292518874,132,499,5881,-6254,6432,5853,2961,374,5583,-5859,4092,115,-5965,-90,159,-5574,1327
841,14.922359812824322,132,499,5881,-6254,6432,5853,2961,374,5583,-5859,4092,115,-5965,-90,159,-5574,1327
842,14.941185149452304,95,7184,4987,6187,-2880,7938,-7300,-2595,-4723,6848,-6652,227,5919,144,1007,5528,-6252
843,14.958287895077614,78,7191,4372,1646,-1292,-7211,6855,436,6484,-2642,-1628,109,-2343,-55,-3807,-7835,-8169
844,14.977118791209826,78,7191,4372,1646,-1292,-7211,6855,436,6484,-2642,-1628,109,-2343,-55,-3807,-7835,-8169
845,14.995010986435664,-45,1408,-2584,-2751,-5914,7576,-7707,-4543,7948,-203,1693,37,-4305,59,-2041,-4897,-2829
846,15.012722283946974,-53,8036,-5899,2453,-1145,6083,5772,3504,-6689,-2103,-5037,111,349,80,1927,6219,4773
847,15.03087278229238,-15,-5225,4153,-4327,5681,-576,-6013,-2290,-4533,1103,-6480,95,-187,-33,-6894,-7003,-1106
848,15.048570394870202,-52,-1215,-253,1618,-7392,-3543,-7772,-7454,-912,-7192,3991,41,2759,38,-6181,4492,2501
849,15.065117617726779,-52,-1215,-253,1618,-7392,-3543,-7772,-7454,-912,-7192,3991,41,2759,38,-6181,4492,2501
850,15.083270254343041,24,-3041,-1684,-649,-2331,-339,402,1154,-1575,-6780,6580,87,-2265,88,-4035,-7968,-4483
851,15.100041140331296,24,-3041,-1684,-649,-2331,-339,402,1154,-1575,-6780,6580,87,-2265,88,-4035,-7968,-4483
852,15.114842678859942,-1,3796,-1298,3276,1075,6217,-6295,3811,-6379,-417,-3831,94,6503,-61,7790,-3894,-3648
853,15.130822404630981,-83,3646,2553,-4087,7156,-679,-4844,-6914,-4240,169,3015,103,-4433,111,-709,-4230,120
854,15.150150662564608,52,-754,6545,511,-2281,-3328,4340,-5725,-2791,-7757,-594,103,1368,146,-5789,-1190,6444
855,15.166673936787582,68,821,1470,6921,-6012,50,415,6371,-3320,-3497,-672,116,-2885,19,3710,866,2635
856,15.185815309848277,45,3897,268,5345,-3780,-6309,-8022,-5212,6943,-3854,-3340,54,-7509,111,-7338,1433,-7026
857,15.210123172954466,-72,3657,781,-4900,3865,-1283,-2494,2337,4752,-5613,-1853,54,3845,97,878,1732,-1687
858,15.227158349220685,99,-5834,1239,-7457,5683,-1505,1036,2398,-6139,6448,2395,54,2,-103,5452,-4572,-3642
859,15.244659240879633,148,-2972,2973,7137,4790,-6979,6025,-6763,4143,1249,3029,31,-4313,-70,-6847,2050,3398
860,15.261942456565304,127,-2687,694,-6701,3065,3765,-1208,-3430,3818,5923,4966,33,7506,102,7606,-6819,613
861,15.278616692710806,1,-6315,6999,5495,-6447,1745,6595,-7137,-1134,-6849,4584,91,-2817,-47,-4153,-65,-2108
862,15.295063416837086,1,-6315,6999,5495,-6447,1745,6595,-7137,-1134,-6849,4584,91,-2817,-47,-4153,-65,-2108
863,15.311981415860325,22,-1448,4362,6299,-4775,4670,-4515,7845,6029,-668,-8131,233,-7988,64,-7400,-628,-7567
864,15.328023579140398,120,-3903,-7645,1226,-2486,1823,-6397,-5993,7505,6936,-776,233,1961,-59,-5990,-5827,978
865,15.346881845139581,81,-3784,5058,-7666,277,-1666,-513,1787,2486,1874,4751,233,1284,57,-2420,-767,8153
866,15.36482022701594,121,-3827,-6875,-5602,8072,2349,623,332,-7037,-4686,-7283,33,3289,135,6223,-919,596
867,15.38288733279791,121,-3827,-6875,-5602,8072,2349,623,332,-7037,-4686,-7283,33,3289,135,6223,-919,596
868,15.401649804262686,108,-3463,-7232,-4561,5943,-3084,-1380,1828,1804,5578,5737,226,-4708,20,-940,-4170,161
869,15.417876286490662,108,-3463,-7232,-4561,5943,-3084,-1380,1828,1804,5578,5737,226,-4708,20,-940,-4170,161
870,15.436551516504457,108,-3463,-7232,-4561,5943,-3084,-1380,1828,1804,5578,5737,226,-4708,20,-940,-4170,161
871,15.454225608102849,115,1784,1570,6969,-7338,5863,3884,6409,5759,5356,8008,250,-5533,-67,1744,-900,-3591
872,15.472482164682779,115,1784,1570,6969,-7338,5863,3884,6409,5759,5356,8008,250,-5533,-67,1744,-900,-3591
873,15.497000005987159,-12,1991,6163,7315,-742,6552,5492,-4681,3296,793,-311,231,-4094,-79,1022,5103,1458
874,15.52338156417079,-12,1991,6163,7315,-742,6552,5492,-4681,3296,793,-311,231,-4094,-79,1022,5103,1458
875,15.547456783407702,147,-704,1261,-2563,-6577,6021,5954,8062,7483,-1605,2603,109,-6231,-71,-4999,1907,6304
876,15.563231662830608,147,-704,1261,-2563,-6577,6021,5954,8062,7483,-1605,2603,109,-6231,-71,-4999,1907,6304
877,15.583658564330735,147,-704,1261,-2563,-6577,6021,5954,8062,7483,-1605,2603,109,-6231,-71,-4999,1907,6304
878,15.601877914997747,147,-704,1261,-2563,-6577,6021,5954,8062,7483,-1605,2603,109,-6231,-71,-4999,1907,6304
879,15.61841273588335,-69,8006,-4774,-3164,6470,-7775,-966,675,7344,3293,-8192,109,6538,87,2526,-5199,-6565
880,15.63701312641714,-69,8006,-4774,-3164,6470,-7775,-966,675,7344,3293,-8192,109,6538,87,2526,-5199,-6565
881,15.655503182174689,-69,8006,-4774,-3164,6470,-7775,-966,675,7344,3293,-8192,109,6538,87,2526,-5199,-6565
882,15.672801793410533,-69,8006,-4774,-3164,6470,-7775,-966,675,7344,3293,-8192,109,6538,87,2526,-5199,-6565
883,15.689993491103511,96,6904,-3131,-4791,1597,431,1386,2467,6674,8067,-6679,236,-979,-63,-5348,7924,-3777
884,15.70930849175782,96,6904,-3131,-4791,1597,431,1386,2467,6674,8067,-6679,236,-979,-63,-5348,7924,-3777
885,15.731492624248505,149,3406,4941,-2257,-749,2338,2673,7121,3873,128,-1422,38,-1413,36,-5715,573,-5778
886,15.749742766015862,-99,7510,-8137,262,-21,-1346,-493,-6036,-7717,1607,-3828,44,-2106,55,-6270,-2504,2402
887,15.769063326174402,-99,7510,-8137,262,-21,-1346,-493,-6036,-7717,1607,-3828,44,-2106,55,-6270,-2504,2402
888,15.79070904206321,52,2305,-1037,-3628,3771,2631,-4059,-7604,-4605,-4201,4115,46,-3692,131,7275,-5464,-1322
889,15.81177314827882,52,2305,-1037,-3628,3771,2631,-4059,-7604,-4605,-4201,4115,46,-3692,131,7275,-5464,-1322
890,15.830421436079813,-90,-2161,-3586,4833,-7629,-5445,2030,7359,-4531,491,-4832,96,-6211,-61,6986,2830,7634
891,15.847791037908122,-90,-2161,-3586,4833,-7629,-5445,2030,7359,-4531,491,-4832,96,-6211,-61,6986,2830,7634
892,15.865368907317933,85,-1510,3997,-3884,-6317,-4240,3574,4566,5834,5941,6463,243,-304,-18,-251,-3953,4501
893,15.883397951878642,-53,-2575,5837,2844,2586,5876,4018,-7969,4999,-5197,-5678,57,-7495,148,-302,5811,-4334
894,15.899514954638722,129,1749,-7342,3142,5240,4539,7060,6298,2040,5551,3394,40,6864,-64,3366,-3884,-317
895,15.914968665778856,129,1749,-7342,3142,5240,4539,7060,6298,2040,5551,3394,40,6864,-64,3366,-3884,-317
896,15.931178897148316,83,-3821,5608,2389,-1376,6159,-2291,-1320,-1125,4905,-7517,232,-5068,20,5441,-5295,7671
897,15.946636457175995,83,-3821,5608,2389,-1376,6159,-2291,-1320,-1125,4905,-7517,232,-5068,20,5441,-5295,7671
898,15.96404112664636,-65,2793,3892,2762,-6480,-5375,4535,-6177,-2407,6529,2841,232,1396,48,2279,1147,-2045
899,15.979930617387222,-65,2793,3892,2762,-6480,-5375,4535,-6177,-2407,6529,2841,232,1396,48,2279,1147,-2045
900,15.997302785140556,95,3014,-616,-3447,7463,-6204,-7448,162,-94,-8030,963,232,1718,1,-4887,4608,-5212
901,16.014933683667632,144,-3156,-6939,1393,4017,-4692,-7121,6892,288,4481,6769,127,5131,-53,-4371,-5194,5476
902,16.03390955456397,-96,-8053,-1381,-5428,1614,1908,-5436,-7069,-7829,-5712,-899,95,2665,-103,2797,-5130,7477
903,16.05096269230539,2,5054,-5801,-4356,-3937,-7710,-1412,447,-5858,6498,-1684,120,-8022,59,4576,5914,-4928
904,16.07029223320153,63,3491,-3321,-707,6607,48,5400,-7239,4593,-6950,-4049,45,-7110,23,6809,-708,3733
905,16.088591555198608,63,3491,-3321,-707,6607,48,5400,-7239,4593,-6950,-4049,45,-7110,23,6809,-708,3733
906,16.105666503302775,-83,-1124,-5550,8117,5343,3794,-7205,6807,-1612,4525,965,53,-6205,-19,-1094,-1634,-270
907,16.122820995082833,-77,-325,-5012,4655,-5890,-5279,2311,-5801,7274,7374,-5557,19,-1919,-63,-7974,2917,2390
908,16.13915310789116,-96,375,-292,6598,-8100,-5292,4135,6068,3622,1545,-2362,251,-4716,-53,1447,2515,7161
909,16.155226489925752,106,1218,-5228,-8095,-5730,-3559,-4757,1288,2337,-5848,5094,251,-1792,60,5422,2387,3163
910,16.17077471263778,114,5347,-2795,-4076,-3477,354,-3408,-5348,6078,-6755,1964,87,158,-101,-3871,-24,2665
911,16.189373392554884,28,1104,5947,3565,722,4187,3644,6517,2525,-2,-5714,23,7412,149,85,-2691,-5576
912,16.211755101272786,-98,6931,3369,-6835,-2701,2904,-7184,-1495,-2446,2193,5917,231,-5078,21,-2131,-4183,7205
913,16.232153777597592,-98,6931,3369,-6835,-2701,2904,-7184,-1495,-2446,2193,5917,231,-5078,21,-2131,-4183,7205
914,16.25064255039263,76,-2865,993,7823,2437,5275,-5270,5078,2813,-1068,-6108,231,-3042,141,4714,3212,8000
915,16.269546575388162,76,-2865,993,7823,2437,5275,-5270,5078,2813,-1068,-6108,231,-3042,141,4714,3212,8000
916,16.287123161835456,-26,5315,-3588,-3176,6639,3768,6087,3633,-7590,2771,4507,88,-7109,38,922,-4730,231
917,16.30543830703688,-26,5315,-3588,-3176,6639,3768,6087,3633,-7590,2771,4507,88,-7109,38,922,-4730,231
918,16.322143761936896,-17,-7296,-4950,-38,-4816,-3865,-108,-1228,-4526,5883,8190,25,4855,86,-3035,-7840,5322
919,16.3391207772358,-17,-7296,-4950,-38,-4816,-3865,-108,-1228,-4526,5883,8190,25,4855,86,-3035,-7840,5322
920,16.355115043248666,-17,-7296,-4950,-38,-4816,-3865,-108,-1228,-4526,5883,8190,25,4855,86,-3035,-7840,5322
921,16.371806813215198,119,-2283,3118,-7785,740,7685,2263,4217,2901,-1357,5620,36,-8046,80,1349,7033,3467
922,16.387612911392623,106,5820,2404,5344,-7380,-4684,7240,7523,5711,-3573,-6691,36,-6736,-1,6473,-7173,-1098
923,16.40680389233721,70,6103,4752,-1195,-93,-580,-2592,2905,-7708,-294,-3470,36,-2398,72,2916,-1920,-1831
924,16.42296579878529,149,1197,4755,-3809,-1059,1699,-5569,-6912,665,-4963,-1700,40,-5785,142,-5861,-1042,-4735
925,16.44133311779563,149,1197,4755,-3809,-1059,1699,-5569,-6912,665,-4963,-1700,40,-5785,142,-5861,-1042,-4735
926,16.461355030795378,149,1197,4755,-3809,-1059,1699,-5569,-6912,665,-4963,-1700,40,-5785,142,-5861,-1042,-4735
927,16.479686854509485,-19,-7894,-4975,19,-938,7138,-632,6521,-1862,-7955,1766,40,1049,129,4743,2808,8140
928,16.497695799324134,-19,-7894,-4975,19,-938,7138,-632,6521,-1862,-7955,1766,40,1049,129,4743,2808,8140
929,16.51546696841945,68,4746,442,-5487,5160,-5938,1030,-2616,709,8164,3958,40,2557,-1,2068,-1052,2149
930,16.533235143935563,-58,-1347,1313,-4831,5070,-2692,-4789,-100,-1113,7270,-4759,21,6524,-90,7869,4025,4902
931,16.549861055159692,147,3666,8109,7118,-7000,-3990,-7469,5072,-1270,5068,3912,116,-6631,-102,4596,975,3648
932,16.565524316843845,-16,4613,-1269,-2538,7599,1619,-3899,6580,-2566,-4796,2681,85,-1248,99,2869,-6732,1794
933,16.58161993689535,39,4549,5758,-3516,6321,3020,1334,549,4190,6582,-8163,109,-4448,-77,-841,655,-6168
934,16.60023230174594,39,4549,5758,-3516,6321,3020,1334,549,4190,6582,-8163,109,-4448,-77,-841,655,-6168
935,16.620145162931962,39,4549,5758,-3516,6321,3020,1334,549,4190,6582,-8163,109,-4448,-77,-841,655,-6168
936,16.638929017105312,-66,-2073,7666,1519,440,-4377,6608,417,3429,6330,-3948,92,7698,72,1475,-5441,-4141
937,16.658329976248087,-66,-2073,7666,1519,440,-4377,6608,417,3429,6330,-3948,92,7698,72,1475,-5441,-4141
938,16.67539209472711,-66,-2073,7666,1519,440,-4377,6608,417,3429,6330,-3948,92,7698,72,1475,-5441,-4141
939,16.693412158550217,-66,-2073,7666,1519,440,-4377,6608,417,3429,6330,-3948,92,7698,72,1475,-5441,-4141
940,16.721573185741327,149,-4912,4844,-7822,-3900,8070,5639,2262,1217,949,2604,225,2312,-20,-5016,-6597,-482
941,16.7409442090921,-27,-3276,-2858,5594,-2981,1154,2783,-3708,1618,6349,6157,225,-7691,140,2520,-2213,8183
942,16.759063488682987,-27,-3276,-2858,5594,-2981,1154,2783,-3708,1618,6349,6157,225,-7691,140,2520,-2213,8183
943,16.77888868076386,-27,-3276,-2858,5594,-2981,1154,2783,-3708,1618,6349,6157,225,-7691,140,2520,-2213,8183
944,16.797426633788614,41,4473,-7215,2515,-1555,-6792,-4548,-3878,-1893,-606,677,225,-1305,37,-6660,3748,369
945,16.815962876196682,38,-3530,-1859,-5009,1429,-2033,5393,1994,7411,-8066,-4280,25,-963,-39,-1667,7290,-6306
946,16.83458593240156,38,-3530,-1859,-5009,1429,-2033,5393,1994,7411,-8066,-4280,25,-963,-39,-1667,7290,-6306
947,16.85216294650303,-61,6904,-8042,2318,-7384,2668,7758,-4936,83,-1968,-5470,35,6244,-84,-8080,2866,-3865
948,16.871881652695205,-20,5719,4236,-6701,6287,1807,-3971,-5639,926,-5583,-1856,106,-1701,99,5108,-2635,-7108
949,16.892347043070764,60,-1638,3388,2797,-3165,7929,2333,-1065,-6632,1910,821,93,4851,105,3841,5922,-2599
950,16.90948913287985,60,-1638,3388,2797,-3165,7929,2333,-1065,-6632,1910,821,93,4851,105,3841,5922,-2599
951,16.928298218649314,89,-5945,-2181,7628,4454,-7412,-5773,-310,-6646,6560,-756,93,1439,55,-5223,-943,2597
952,16.94539027292034,-99,2414,-7382,-1080,6418,7928,-2635,-5534,6806,7185,-7317,93,8175,93,8184,-7685,1895
953,16.964141197722483,-99,2414,-7382,-1080,6418,7928,-2635,-5534,6806,7185,-7317,93,8175,93,8184,-7685,1895
954,16.980122206456038,42,-1377,-5027,5886,-7472,4327,-4719,-1817,4817,7836,788,106,3491,-26,-2030,1820,-2877
955,16.997008986724758,19,-1069,2475,4536,946,6269,2392,-6047,-6757,-3179,5358,101,7312,-64,2955,7537,2372
956,17.012635470150165,19,-1069,2475,4536,946,6269,2392,-6047,-6757,-3179,5358,101,7312,-64,2955,7537,2372
957,17.028804646719166,19,-1069,2475,4536,946,6269,2392,-6047,-6757,-3179,5358,101,7312,-64,2955,7537,2372
958,17.04798365334695,146,-3364,-744,1370,1591,70,-3312,-5655,4852,5602,5569,30,-4958,38,-7714,-2281,1565
959,17.064958958029166,-81,-4376,384,3122,-8123,6150,5070,-716,-2355,-5339,-1757,111,-2311,42,-5370,5634,5718
960,17.082052295262702,-81,-4376,384,3122,-8123,6150,5070,-716,-2355,-5339,-1757,111,-2311,42,-5370,5634,5718
961,17.100055252918953,45,3771,1900,-4237,-4487,-6210,-3801,4027,666,-528,-1899,115,-5827,-66,2290,-5311,-3201
962,17.118116371542524,45,3771,1900,-4237,-4487,-6210,-3801,4027,666,-528,-1899,115,-5827,-66,2290,-5311,-3201
963,17.136406712802,61,4279,8161,-5899,6340,-4324,2979,-875,-8149,-7104,-2252,255,3502,-19,-6091,1715,-8081
964,17.155912447216785,89,3826,-6771,-2200,8158,5877,-7835,-2007,-5793,-623,-7282,231,1508,87,-3502,7375,-6904
965,17.17345396602202,89,3826,-6771,-2200,8158,5877,-7835,-2007,-5793,-623,-7282,231,1508,87,-3502,7375,-6904
966,17.189450370305746,-65,-764,8105,6843,3800,-3460,4977,-3048,-225,6382,2936,231,-212,89,5533,-8081,-5403
967,17.208915477574244,-41,7849,-6016,5880,4601,1619,5958,805,3261,-2220,7783,101,998,-6,8091,6734,-5423
968,17.231124841661043,-41,7849,-6016,5880,4601,1619,5958,805,3261,-2220,7783,101,998,-6,8091,6734,-5423
969,17.252038413608297,-20,-3956,-6848,2190,-3366,-4513,7519,-2213,5463,-3771,-5662,234,5479,-60,1234,4841,-1143
970,17.272204018409656,145,-7453,-754,3931,-111,-1000,-7467,-5508,-8106,7559,-5094,234,-7952,32,-3995,-3578,-6302
971,17.292571475979948,145,-7453,-754,3931,-111,-1000,-7467,-5508,-8106,7559,-5094,234,-7952,32,-3995,-3578,-6302
972,17.30991584621214,-88,2773,-3946,7289,-3851,-7472,-5272,-7266,-7737,5340,-5803,232,-565,-60,-2636,2353,-6193
973,17.327941041885303,-88,2773,-3946,7289,-3851,-7472,-5272,-7266,-7737,5340,-5803,232,-565,-60,-2636,2353,-6193
974,17.347466448391977,-43,-4502,4835,4778,-4330,6600,-6808,-3026,6600,-6412,408,230,-2759,70,-7523,-1522,3772
975,17.363345675432722,-43,-4502,4835,4778,-4330,6600,-6808,-3026,6600,-6412,408,230,-2759,70,-7523,-1522,3772
976,17.380838869316584,86,-4505,-7659,-4149,7549,6204,-7276,-2326,-2494,-3167,6802,29,-4602,-31,-5435,1178,-3223
977,17.39803313293459,86,-4505,-7659,-4149,7549,6204,-7276,-2326,-2494,-3167,6802,29,-4602,-31,-5435,1178,-3223
978,17.414090264110662,-9,3983,986,3108,8172,-7414,-6735,-5659,1512,6071,-1122,226,1933,-56,-3145,4651,300
979,17.43132258894993,-57,-1501,2218,4616,6652,1082,-4147,-2782,-2735,6323,6497,226,5765,-85,-6329,-5625,820
980,17.451926966931214,8,-987,-1387,-3828,-4871,-1162,1363,-3848,5210,-2172,-766,61,-7024,-85,6659,-8161,5727
981,17.470805332676456,109,-3927,7426,-3778,5027,-175,6823,-207,-5064,-7042,-71,24,4123,-47,4251,-919,-6921
982,17.4887514123279,61,-2669,-5615,2142,4127,-3604,-4783,-2041,7621,285,2030,24,-5872,23,-3266,1256,858
983,17.50883490752834,-90,3677,-779,-3163,7864,2949,-4756,2324,-5145,3156,-7361,108,3559,2,4046,-6052,4409
984,17.5266248934072,55,3211,-1528,-5822,-5768,4989,3449,1921,-4082,-975,-3894,225,-3144,86,3607,6320,-6186
985,17.545565269007305,65,6289,3488,7180,380,-7026,-3211,-7675,4939,7526,2495,225,-269,17,6356,-142,445
986,17.56368625921488,-22,6978,-2239,3338,2040,-5546,6637,-2723,8095,1969,7349,233,-5898,-22,-3157,7242,-3282
987,17.58215920880557,34,-5608,998,7540,-1403,-2929,5884,-3261,-3306,-2044,1897,60,-4082,50,-4116,-1283,-2199
988,17.60115304117711,50,4273,7949,-1935,-5242,4374,-317,7562,856,-7571,-4667,110,-7121,-94,895,4599,7005
989,17.618668473077886,50,4273,7949,-1935,-5242,4374,-317,7562,856,-7571,-4667,110,-7121,-94,895,4599,7005
990,17.637906068327162,-85,5333,-7669,-2907,-7573,1980,6884,-7665,7800,1204,4317,110,-2823,-46,3131,28,-3341
991,17.655830765270032,-103,-1085,6797,-4275,4298,-5506,-5187,-7862,-4305,6952,-838,110,796,25,7398,-7523,-2011
992,17.67591426047047,-103,-1085,6797,-4275,4298,-5506,-5187,-7862,-4305,6952,-838,110,796,25,7398,-7523,-2011
993,17.69563382197099,-103,-1085,6797,-4275,4298,-5506,-5187,-7862,-4305,6952,-838,110,796,25,7398,-7523,-2011
994,17.719445606238278,-103,-1085,6797,-4275,4298,-5506,-5187,-7862,-4305,6952,-838,110,796,25,7398,-7523,-2011
995,17.741118264339885,108,562,-2788,3915,-1436,-3609,-6423,1119,-4952,-1336,-5520,108,-6856,-20,7611,6393,-230
996,17.760114234982282,91,7835,-6104,-6439,-6631,2223,7479,-6226,2094,-4399,-1346,92,5050,-82,-1012,6034,2821
997,17.77727129268737,66,-3422,5129,-7767,-7017,-7645,-2004,-4368,191,406,7803,29,-6522,102,2514,-7217,8103
998,17.79422179342764,66,-3422,5129,-7767,-7017,-7645,-2004,-4368,191,406,7803,29,-6522,102,2514,-7217,8103
999,17.81138483829113,-39,3353,4650,-4373,-4929,-1032,7994,2055,-5650,-6372,5373,29,6142,135,6403,6793,2277
1000,17.826738050700968,-39,3353,4650,-4373,-4929,-1032,7994,2055,-5650,-6372,5373,29,6142,135,6403,6793,2277
1001,17.84256382097028,-98,-2495,-5891,-3027,-5133,946,7250,3316,4057,-7565,-5489,253,-7835,133,-5617,-2677,-2689
1002,17.86236249849252,64,5542,-7250,4482,-6779,665,3729,7264,3909,6993,7528,253,3070,19,-4835,5063,-4451
1003,17.88885139787319,-88,-5234,7053,-7483,6827,-147,-3397,-2642,7694,1655,-7506,34,-2552,-95,5399,-2328,-4223
1004,17.907914510220508,63,-1794,-7364,-8131,1799,5995,-454,-6472,-1653,5803,2184,84,3202,101,2578,-6101,1614
1005,17.924884255398492,-69,5966,-771,-2468,-542,-6449,4751,-7000,-6409,-2242,7301,247,4501,144,-4999,-3142,-7665
1006,17.94262976524352,-69,5966,-771,-2468,-542,-6449,4751,-7000,-6409,-2242,7301,247,4501,144,-4999,-3142,-7665
1007,17.961349471291147,-12,6630,-5918,-2087,5735,-380,-926,-7826,6577,6398,-7050,42,2277,124,4721,-5359,5455
1008,17.97946361903198,-74,-341,-7556,3051,5979,742,-831,7867,-4897,7761,-1000,229,1541,102,7150,-745,-6537
1009,17.995613978817435,-74,-341,-7556,3051,5979,742,-831,7867,-4897,7761,-1000,229,1541,102,7150,-745,-6537
1010,18.012071394298,29,1941,1399,-5565,2684,667,334,1433,-4429,2886,1848,22,-8166,-91,-192,4269,5485
1011,18.03032752322376,-38,6273,-6906,3702,-2321,3227,6195,3674,2939,-7990,7218,124,-5390,-84,-5264,1719,3158
1012,18.046191782368503,31,3981,-5241,-5995,-1492,6496,-6068,-5252,1843,-7800,-3673,119,-3132,-96,-7906,-768,3940
1013,18.064216978041667,146,5427,-7477,6508,-7260,-1335,5298,-3468,4488,-6184,3075,49,-7624,-53,-3399,-5793,-7352
1014,18.083090211936856,146,5427,-7477,6508,-7260,-1335,5298,-3468,4488,-6184,3075,49,-7624,-53,-3399,-5793,-7352
1015,18.100527383124252,146,5427,-7477,6508,-7260,-1335,5298,-3468,4488,-6184,3075,49,-7624,-53,-3399,-5793,-7352
1016,18.118866049305105,146,5427,-7477,6508,-7260,-1335,5298,-3468,4488,-6184,3075,49,-7624,-53,-3399,-5793,-7352
1017,18.138072853454034,36,7910,-7799,5958,7696,-2725,7447,-3548,630,-5089,4100,49,2468,140,7839,-1549,-7724
1018,18.156662552633538,-54,4730,3606,453,-5432,-4006,-4128,1290,2125,-1651,-4885,107,-2947,56,-6286,4100,-1138
1019,18.17601304858408,-78,5348,-7429,6499,-5493,-4465,-4613,-6359,7357,-6688,-7610,21,-2086,-8,-1031,545,-2335
1020,18.192787355805706,38,6438,-4763,3128,6947,-6200,-6605,-4249,3817,5134,3781,37,-8012,-104,3669,-4046,6417
1021,18.212308913424835,127,-6299,2312,5789,4238,7615,-122,852,1964,5555,5353,38,-6253,-53,-2104,-6415,5864
1022,18.232521132530884,9,3986,-2991,2494,-5006,-5625,-731,6090,7047,-14,141,20,-5228,-87,-402,4457,-3759
1023,18.24921803434747,9,3986,-2991,2494,-5006,-5625,-731,6090,7047,-14,141,20,-5228,-87,-402,4457,-3759
1024,18.26687886866655,-17,-1439,-2418,-5680,-7868,3303,2762,4432,-5316,94,803,20,-7734,126,6261,-3590,-2109
1025,18.287403275317768,-50,355,-5404,981,-4437,-1468,-728,-4369,4036,-37,-5072,57,-2373,108,-6886,-1765,-5168
1026,18.304843012430197,-54,-2377,3422,6948,7140,-3857,-7917,-533,1672,-3703,3093,57,4222,36,-2388,3218,-3466
1027,18.321846542287727,-15,7013,-5505,-3356,-2026,-4551,7398,4599,1683,-4718,3065,57,6070,-62,-4625,5796,3699
1028,18.340490125892835,80,8041,8017,-2445,5302,-3287,2943,320,1060,4352,-5600,17,5488,-21,2142,2696,5128
1029,18.36063477563979,126,-3497,7572,3627,5781,3842,1805,7039,-2207,-5364,2060,112,-6523,98,-5316,2365,4648
1030,18.37768705807287,126,-3497,7572,3627,5781,3842,1805,7039,-2207,-5364,2060,112,-6523,98,-5316,2365,4648
1031,18.394265499683964,126,7377,3600,-4569,-5129,-3416,-6124,-3391,-324,-2536,-2758,112,-4046,-49,1932,-8139,7875
1032,18.410431255019592,-75,4549,-2017,-328,-2771,5429,1588,5207,-5869,7491,-2755,27,-313,30,2036,6910,-2075
1033,18.427755097851552,83,4172,-4630,2877,724,-830,-5463,7458,-4294,-3590,-7961,27,5857,72,553,7888,-5785
1034,18.44348379062394,34,-2857,3638,4138,-4335,-1805,-1847,-1709,-6355,5816,-1392,88,2125,145,-5931,7339,-4706
1035,18.460733221630065,-34,3179,-464,1207,4134,-4894,-4648,-3488,2888,5912,-6035,226,1139,-84,-5383,4086,163
1036,18.47805877507871,-34,3179,-464,1207,4134,-4894,-4648,-3488,2888,5912,-6035,226,1139,-84,-5383,4086,163
1037,18.497267289844324,-81,4394,5649,-6417,884,-7872,-5076,-484,1854,5990,-965,21,-1786,-27,1481,-62,5559
1038,18.51493069008843,-41,535,5974,1107,4700,1605,6057,-766,-534,5088,3695,21,-3919,49,2702,4236,1329
1039,18.533874914576078,75,634,3962,-355,-6328,-5777,-407,4589,-2525,7674,4166,236,4111,-12,-1098,1270,-4828
1040,18.553027834299403,75,634,3962,-355,-6328,-5777,-407,4589,-2525,7674,4166,236,4111,-12,-1098,1270,-4828
1041,18.571947254845107,140,2517,-5540,7859,124,7088,7591,-3206,-4039,1137,-2489,49,-5,-28,-3013,1101,-461
1042,18.590967174121108,140,2517,-5540,7859,124,7088,7591,-3206,-4039,1137,-2489,49,-5,-28,-3013,1101,-461
1043,18.60654576027931,149,-1706,-1969,-49,1080,-7126,6155,1196,1368,-3619,-7092,229,446,124,7650,-3809,5034
1044,18.62337737315991,149,-1706,-1969,-49,1080,-7126,6155,1196,1368,-3619,-7092,229,446,124,7650,-3809,5034
1045,18.639382330527067,149,-1706,-1969,-49,1080,-7126,6155,1196,1368,-3619,-7092,229,446,124,7650,-3809,5034
1046,18.656096338510515,-54,-3779,-7004,2330,-7831,7664,-6073,1328,6476,3295,-2895,40,1576,-18,-1441,-4938,3466
1047,18.672840282285964,-54,-3779,-7004,2330,-7831,7664,-6073,1328,6476,3295,-2895,40,1576,-18,-1441,-4938,3466
1048,18.692460628018704,-54,-3779,-7004,2330,-7831,7664,-6073,1328,6476,3295,-2895,40,1576,-18,-1441,-4938,3466
1049,18.715002707050907,-54,-3779,-7004,2330,-7831,7664,-6073,1328,6476,3295,-2895,40,1576,-18,-1441,-4938,3466
1050,18.737882632878566,143,5482,-279,-1050,1379,-343,7148,4717,1498,-7660,-6403,109,-995,26,2504,2053,-2388
1051,18.75839891410053,143,5482,-279,-1050,1379,-343,7148,4717,1498,-7660,-6403,109,-995,26,2504,2053,-2388
1052,18.777979915649492,143,5482,-279,-1050,1379,-343,7148,4717,1498,-7660,-6403,109,-995,26,2504,2053,-2388
1053,18.79707510205967,-54,3186,-7104,-1105,-3142,7848,-2752,6143,5973,-4892,-6024,41,-407,131,-4074,-4743,5640
1054,18.815518115858357,-54,3186,-7104,-1105,-3142,7848,-2752,6143,5973,-4892,-6024,41,-407,131,-4074,-4743,5640
1055,18.833331195062478,-54,3186,-7104,-1105,-3142,7848,-2752,6143,5973,-4892,-6024,41,-407,131,-4074,-4743,5640
1056,18.8507170477493,26,-3343,-2156,-2436,7035,-7637,4675,-752,6609,8044,-7897,227,-2912,-27,-2410,5840,-6023
1057,18.867614091718135,67,5591,-5731,-8079,-6924,1535,-1895,-5671,-1184,-390,-3281,119,2035,20,3187,660,-6105
1058,18.88582617226423,46,-5843,-5286,-2566,4328,-3893,751,-2761,3879,6703,-6853,48,8,-68,7901,-880,-4335
1059,18.90263939601546,113,-2510,4003,-2135,4194,2423,-2486,5804,3934,6185,-883,232,-5631,18,677,-7787,893
1060,18.92145532425167,3,-8135,1589,-5316,1504,5164,-4438,2114,4898,-7528,-7594,232,-7710,60,-6610,-604,8118
1061,18.93913796893349,-19,6770,6386,-276,-829,-7329,-5853,7605,6655,-953,-130,241,7330,52,4785,4341,-341
1062,18.9567008704473,-19,6770,6386,-276,-829,-7329,-5853,7605,6655,-953,-130,241,7330,52,4785,4341,-341
1063,18.97853732009658,-88,-2971,7194,8120,5404,-916,3404,7014,-8005,-2805,5683,44,3203,-23,-8092,-3815,2698
1064,18.99526244708849,26,3909,5673,4280,-6133,-7450,4114,4673,3185,1704,-874,50,-2842,112,-8171,3054,-6503
1065,19.013007529279342,-12,4984,-3014,1046,-2106,-5998,-6994,5982,-5095,7174,7220,50,4477,-102,-2949,946,-5787
1066,19.030804785279116,7,7695,1006,3574,-5045,-1617,1634,1103,1144,3449,2681,235,-1583,-32,4379,-54,7980
1067,19.046565979768538,28,-341,7677,-6405,-648,6024,-5210,-5291,1257,939,1441,84,-1794,-39,7743,7288,766
1068,19.063621683434988,-50,2485,-4743,5132,6869,278,5495,-6524,-2058,1274,-6922,26,-3794,117,4701,-7246,4314
1069,19.080711171780983,-50,2485,-4743,5132,6869,278,5495,-6524,-2058,1274,-6922,26,-3794,117,4701,-7246,4314
1070,19.098224893065073,-32,-6389,3487,2575,-5577,-1388,4704,2677,3600,6717,-5306,248,4409,-90,361,711,-6375
1071,19.11512150937974,-32,-6389,3487,2575,-5577,-1388,4704,2677,3600,6717,-5306,248,4409,-90,361,711,-6375
1072,19.133287403275318,3,4550,-4959,5094,3657,5589,3516,-3108,-1856,6176,5029,228,-749,-35,-6109,30,-572
1073,19.14999328582951,3,4550,-4959,5094,3657,5589,3516,-3108,-1856,6176,5029,228,-749,-35,-6109,30,-572
1074,19.167578853014405,3,4550,-4959,5094,3657,5589,3516,-3108,-1856,6176,5029,228,-749,-35,-6109,30,-572
1075,19.186053513221783,83,1380,-183,7276,6150,6282,1034,5480,-2770,-4040,-4831,228,7410,82,-3512,6070,-6547
1076,19.202782061447063,83,1380,-183,7276,6150,6282,1034,5480,-2770,-4040,-4831,228,7410,82,-3512,6070,-6547
1077,19.223485655196125,-16,-5733,-1452,4194,-4284,7497,-1317,4368,-1915,-7562,1429,228,-4860,34,-7415,-597,3470
1078,19.242121113371976,83,3693,1945,-1970,5547,-7640,-1701,506,-7855,6393,-5368,63,-2180,-35,3891,7224,4682
1079,19.258978813157036,-74,6839,6422,3851,-5585,4365,4416,-4974,5872,7756,-2460,63,3052,118,6883,-7496,5526
1080,19.275678708552828,-74,6839,6422,3851,-5585,4365,4416,-4974,5872,7756,-2460,63,3052,118,6883,-7496,5526
1081,19.292599273501093,-74,6839,6422,3851,-5585,4365,4416,-4974,5872,7756,-2460,63,3052,118,6883,-7496,5526
1082,19.310248133503368,20,-2744,1030,-3415,1754,7006,7867,6372,2732,-1899,-2808,39,5141,137,5722,-6107,5267
1083,19.327933344110217,28,-3741,7372,-7684,3734,-4493,-1629,-7121,-2815,-1028,1679,41,-5146,-80,4661,6534,2726
1084,19.34733900744888,-7,4715,4396,-2366,-5296,6973,1316,7534,131,-5868,-3588,98,-1794,-71,-7197,-5254,-6022
1085,19.36496862301344,-7,4715,4396,-2366,-5296,6973,1316,7534,131,-5868,-3588,98,-1794,-71,-7197,-5254,-6022
1086,19.38459581121292,-7,4715,4396,-2366,-5296,6973,1316,7534,131,-5868,-3588,98,-1794,-71,-7197,-5254,-6022
1087,19.401818727660416,-43,-7338,2954,-3446,-1833,6733,-1846,8002,-4724,-5444,-2548,98,5207,45,7550,1761,3027
1088,19.419468442971034,-8,3895,6725,517,-2644,7252,-4940,-3262,-922,-4974,-5385,38,3384,-9,2477,3495,-5203
1089,19.435969051522918,17,1313,6348,-3771,7545,-3998,6392,-3126,-1079,-2423,-7860,125,-4701,-31,-7557,6698,1231
1090,19.45359011400405,-96,-7888,7092,-4676,7852,4829,-3125,6199,-1107,4034,3055,125,-4411,113,2699,-2530,2954
1091,19.468823155591707,124,4221,5307,7700,7459,-5733,519,-4361,3215,2319,5523,38,-1426,131,6639,-6585,220
1092,19.483815427880828,-99,-8127,-4297,3762,-3520,7312,5042,6381,-843,5754,-4929,104,-6094,-20,-5812,-5421,-7447
1093,19.498544692854498,-99,-8127,-4297,3762,-3520,7312,5042,6381,-843,5754,-4929,104,-6094,-20,-5812,-5421,-7447
1094,19.517048861199708,-99,-8127,-4297,3762,-3520,7312,5042,6381,-843,5754,-4929,104,-6094,-20,-5812,-5421,-7447
1095,19.534934213958802,67,-7713,-321,4681,-3824,7117,636,8047,2020,1640,-1153,92,8060,134,-1487,-5697,4595
1096,19.552826836838815,67,-7713,-321,4681,-3824,7117,636,8047,2020,1640,-1153,92,8060,134,-1487,-5697,4595
1097,19.57001254737339,67,-7713,-321,4681,-3824,7117,636,8047,2020,1640,-1153,92,8060,134,-1487,-5697,4595
1098,19.589027334799333,47,-4837,6513,-6847,-6893,5256,2280,4109,-8109,7091,3746,92,-3582,13,1926,-7606,-5868
1099,19.60678524661533,47,-4837,6513,-6847,-6893,5256,2280,4109,-8109,7091,3746,92,-3582,13,1926,-7606,-5868
1100,19.62477922353398,37,6020,-7880,-3751,1127,7154,6992,5464,1053,-3202,-5834,92,-3194,127,7203,-510,2374
1101,19.641853743983976,-23,6383,6172,-4510,6311,6594,-435,-1607,5904,-2053,-879,251,7735,-98,-1106,5490,7428
1102,19.659125413007015,-23,6383,6172,-4510,6311,6594,-435,-1607,5904,-2053,-879,251,7735,-98,-1106,5490,7428
1103,19.676363297350512,-23,6383,6172,-4510,6311,6594,-435,-1607,5904,-2053,-879,251,7735,-98,-1106,5490,7428
1104,19.693605458235723,-28,-4893,-4490,115,-3039,-3704,-4606,339,-4702,-7572,2091,53,-1715,92,4933,2094,1889
1105,19.720989865451443,-53,2354,850,-6077,228,4845,-4612,3854,3807,-6672,-8066,85,4771,-60,2516,-2166,3780
1106,19.741471079031346,36,6224,-3277,374,-1823,-6764,-8142,5022,-5393,6183,2368,85,-7103,22,2731,-7099,2142
1107,19.76222085943093,-52,-5990,2773,-1529,2568,-1673,-3610,4320,1056,-6430,3770,85,4077,-81,2850,6933,2767
1108,19.780315335079873,11,2855,7190,-3953,2114,-2896,-4738,-4910,-6358,-2021,7453,25,683,1,-1572,-3130,3213
