Counter:,Time:,Y:,F3:,F4:,P7:,FC6:,F7:,F8:,T7:,P8:,FC5:,AF4:,Unknown:,T8:,X:,O2:,O1:,AF3:
1,0.01944586283077981,30,-1892,-2285,72,-3654,-2127,4237,-5310,-895,1289,-557,22,6826,139,3439,-5961,-7584
2,0.0392428297363341,56,-1343,45,7611,-4909,6769,-763,-2130,-7994,6595,1191,97,-4451,110,2051,-592,7817
3,0.055535170706715625,54,6187,167,-5924,5290,7920,-1015,6802,-867,-5820,-4083,97,-1098,47,-7692,2614,-2330
4,0.071673556175369,-98,-3935,1824,-782,430,7411,1989,5064,7711,2919,7837,97,-3339,66,-7462,-6646,8035
5,0.08780338856059304,-98,-3935,1824,-782,430,7411,1989,5064,7711,2919,7837,97,-3339,66,-7462,-6646,8035
6,0.10500406699117065,66,2871,-7205,5971,6832,-3787,5708,-7195,6797,468,7340,110,5712,-16,-3936,4506,-7209
7,0.1211180761720504,-52,4419,7806,7092,-2703,3574,25,-6460,-6200,6785,-7241,233,2178,-59,-4186,4094,5264
8,0.13685574968203912,122,5627,55,-5471,-1705,5024,2543,6009,3574,7899,-856,38,5014,-22,71,2544,6946
9,0.15235137093097748,-67,450,7039,367,-5355,4243,-3130,2423,2232,741,-7628,99,4990,19,1818,-1001,2950
10,0.16805183852804856,149,1664,3559,1470,-5083,1484,162,-3158,7149,5016,-3198,237,-1771,135,-7851,5752,-358
11,0.18405978947440446,149,1664,3559,1470,-5083,1484,162,-3158,7149,5016,-3198,237,-1771,135,-7851,5752,-358
12,0.20010109744613483,107,-2600,-6205,5594,-3210,1803,3156,2531,7870,-5603,6259,48,-6833,-67,2469,-4235,4772
13,0.21673513409951856,-69,6708,-5692,-446,2987,-3087,6338,7140,8057,-451,530,48,7300,2,972,-7214,381
14,0.2333520645860436,-84,3729,-2764,4780,-314,7426,6761,-2868,6071,-2838,1160,252,-5989,-54,-1949,-6097,4595
15,0.2527577279247055,-27,-7471,-958,6942,-5023,4713,-21,1404,-8006,-932,-2005,53,3737,28,677,2185,-1864
16,0.2718909755561429,-21,3765,-1253,-7037,-559,7230,-6579,-3207,2992,-1223,3153,53,-6533,-28,-7000,-7089,5794
17,0.28985074014107454,-21,3765,-1253,-7037,-559,7230,-6579,-3207,2992,-1223,3153,53,-6533,-28,-7000,-7089,5794
18,0.30808334808740223,-21,3765,-1253,-7037,-559,7230,-6579,-3207,2992,-1223,3153,53,-6533,-28,-7000,-7089,5794
19,0.32451510431768205,128,2646,5403,-5886,-4785,-3457,7610,754,-5691,1106,7924,51,-4597,-34,4293,-7531,2033
20,0.3418898379960468,-32,6395,1973,-3188,-847,2902,6138,2881,-2551,6800,-387,44,7226,57,1449,-3508,6700
21,0.35887540637837645,126,3132,-6755,4348,-4430,-917,2728,-7794,4020,-15,6181,227,3387,-12,-6679,-7972,-6240
22,0.37563089681645684,90,-7494,-2363,-7535,2635,5990,3115,-1595,-7192,-2510,622,227,1858,-9,-7198,3048,-3247
23,0.3931035633000875,-59,-2543,6733,7539,1847,3489,4519,1301,-1402,-7818,3888,227,-3810,-99,-6747,-4775,3631
24,0.4092098747058808,-8,-7679,-6212,5541,-2166,7270,-2245,4050,7383,6384,6614,227,-781,14,-6697,5288,-2386
25,0.4259200338017857,-34,7314,-7072,444,-1092,-6256,3905,8122,5967,4495,5797,245,-5277,129,2806,-6898,1808
26,0.443547083441316,18,-8081,-2448,-4828,-1818,-4277,-6370,3461,-392,-2041,2250,226,-1024,58,-497,-1622,-6214
27,0.4620474028989821,129,243,6178,6421,203,-6486,-3292,-6593,-7530,-7853,3572,226,5141,-82,5933,1001,-6501
28,0.4793143677261371,129,243,6178,6421,203,-6486,-3292,-6593,-7530,-7853,3572,226,5141,-82,5933,1001,-6501
29,0.49637691385933086,129,243,6178,6421,203,-6486,-3292,-6593,-7530,-7853,3572,226,5141,-82,5933,1001,-6501
30,0.5135198589767604,-44,1056,-279,4616,-1749,-5256,-3815,-20,3582,5872,-2617,115,3099,48,-1524,-1186,-3595
31,0.530479768108802,-44,1056,-279,4616,-1749,-5256,-3815,-20,3582,5872,-2617,115,3099,48,-1524,-1186,-3595
32,0.5481585639030799,23,3502,-326,-5249,-6793,-5273,466,-6325,-5503,2047,6969,36,-7530,-97,-2924,3750,-3435
33,0.5658099898303838,6,6820,7179,-5967,7553,-3551,2201,370,-5435,1984,5856,239,2535,31,3628,7047,-4077
34,0.5809592112004338,-78,-5345,-6517,-6406,-5831,-7286,410,3113,7177,2475,3403,239,6684,144,-1395,-6140,-5875
35,0.5971031561733162,36,4033,962,1184,3717,-991,-136,-3930,2589,1132,-7245,42,-8160,81,-1193,-3339,-5746
36,0.6140002001421523,-25,5224,5411,943,-5377,4044,-2004,4579,-3791,2667,210,60,-3479,-89,-4749,-4018,810
37,0.6315759312811065,150,-4308,-5035,-3894,7142,2166,6496,8090,-525,-8152,-140,96,-6127,-64,-5363,-7880,7166
38,0.6500044048379661,16,-463,-1137,7187,-160,-5652,3058,-338,3213,5004,6661,102,4996,59,-705,-3630,7192
39,0.6663929679969277,16,-463,-1137,7187,-160,-5652,3058,-338,3213,5004,6661,102,4996,59,-705,-3630,7192
40,0.683051380938085,57,-6598,3363,719,684,-685,7870,-1194,-1072,-1980,916,19,-5271,32,-5906,846,6990
41,0.7006788582317869,-44,-6186,6812,-8102,3320,-2706,129,4035,5772,2585,-1494,45,-6816,41,-886,4384,-6840
42,0.7186488865168338,-3,-1881,-1283,1175,-2765,5781,143,2094,-851,-5902,-2244,120,-4652,-62,5619,7080,-3414
43,0.7352645340408444,147,-4495,4395,-2209,1248,-7789,-5084,-3404,6997,-1987,-1616,109,-6386,39,4085,-3086,-2361
44,0.7510026352050045,147,-4495,4395,-2209,1248,-7789,-5084,-3404,6997,-1987,-1616,109,-6386,39,4085,-3086,-2361
45,0.7665833596340649,147,-4495,4395,-2209,1248,-7789,-5084,-3404,6997,-1987,-1616,109,-6386,39,4085,-3086,-2361
46,0.7819878905444807,147,-4495,4395,-2209,1248,-7789,-5084,-3404,6997,-1987,-1616,109,-6386,39,4085,-3086,-2361
47,0.7976058208864587,147,-4495,4395,-2209,1248,-7789,-5084,-3404,6997,-1987,-1616,109,-6386,39,4085,-3086,-2361
48,0.8139088532111268,-102,340,4646,420,-6270,377,-4914,4711,3031,-2952,5295,103,-4531,-24,1832,4425,-5071
49,0.8304723269262185,-102,340,4646,420,-6270,377,-4914,4711,3031,-2952,5295,103,-4531,-24,1832,4425,-5071
50,0.8491843351987608,-102,340,4646,420,-6270,377,-4914,4711,3031,-2952,5295,103,-4531,-24,1832,4425,-5071
51,0.8654121003892509,-102,340,4646,420,-6270,377,-4914,4711,3031,-2952,5295,103,-4531,-24,1832,4425,-5071
52,0.8813982409728619,123,7440,-1140,-5608,4390,-4079,6222,-2591,1815,-7342,2295,108,6030,106,-7383,-2952,-1883
53,0.8977401898271337,141,2618,3932,-363,-600,-800,-4807,1244,8149,5536,2259,233,-2224,-2,-261,-4491,7007
54,0.9149301769034246,87,-1281,4169,6812,2454,2697,2229,4900,-984,-5442,-3210,47,-7324,110,7897,3082,2526
55,0.9308247994943417,20,1076,-2029,4426,1441,-2248,7538,2843,-5888,-4620,4249,83,-1562,144,-5676,-3689,-6597
56,0.9471735908153569,-95,-2821,-3285,3094,145,-134,514,-5319,4485,5140,-6925,106,4642,-105,-5257,6860,2749
57,0.9628920198876296,-37,5425,-861,-1678,-4286,-2433,-3623,7684,5283,-6160,-8167,40,3556,-47,-3561,-3829,-4779
58,0.978497548258635,-98,-1058,-4592,6352,-3997,7065,-453,-266,5311,5396,7095,234,5618,39,-1574,-5113,-5620
59,0.993075423655605,52,-3395,-5539,-7527,6528,-2029,4816,930,1299,-6038,279,45,2224,142,3064,-2097,-2565
60,1.0086736819056954,114,-2202,-5394,-1912,4791,3695,6168,-5177,7912,-221,-7112,45,719,142,6155,1872,-2854
61,1.0240653831909672,1,-5761,-2423,-2,1432,-714,1801,-6116,6566,-3536,812,45,6612,-10,-5282,5314,317
62,1.0469055371806812,1,-5761,-2423,-2,1432,-714,1801,-6116,6566,-3536,812,45,6612,-10,-5282,5314,317
63,1.0716624371669108,143,4580,3948,1828,-4698,-5073,3412,6055,-104,-5212,3180,45,-6523,5,2124,-840,2439
64,1.091960187107253,-19,-7505,609,-4195,1515,5715,487,2039,-482,-5805,6485,253,-3713,84,-1630,6474,6455
65,1.1110630712925162,35,7834,7711,-2708,639,6111,5615,1775,5896,1511,1459,45,6207,93,310,457,1341
66,1.126626689554718,-6,3956,7577,-1393,5206,-162,4956,263,4835,5779,-1917,250,5214,22,-6237,4407,718
67,1.1428852458455536,110,2200,-1739,5298,-4727,-6524,-508,-5444,-148,5327,-5974,51,4172,8,6491,-6151,3941
68,1.1589214219672264,-94,-4148,-3325,4716,-4442,-5017,3872,2063,-1843,957,-1693,89,6681,17,-4585,7760,-5446
69,1.176199078148668,76,4936,1400,1714,-4277,-7307,-6535,2140,7998,-2869,1765,114,7353,114,2670,4402,6231
70,1.193062337437958,99,3632,4896,-3025,-6067,-2552,-7492,-163,5571,7630,-1125,114,4953,133,4220,4024,-7039
71,1.2099662238735376,1,-6165,4402,-604,668,-7834,-5331,4600,-5890,-753,7934,87,-886,100,-1055,-6505,4320
72,1.2255439547233975,-83,4898,1218,7386,5353,1843,4399,-605,1626,1895,6742,60,5668,-39,7043,-7164,7114
73,1.2440553931895217,81,3637,-1600,5946,6546,-2209,67,1579,-5339,4434,-839,23,1486,-51,6349,-7001,-838
74,1.2589715430361221,75,2666,-2810,-991,-253,-7001,4382,-5062,1946,-114,6999,228,-3731,55,620,3247,6205
75,1.274278141141272,75,2666,-2810,-991,-253,-7001,4382,-5062,1946,-114,6999,228,-3731,55,620,3247,6205
76,1.2915827395355162,75,2666,-2810,-991,-253,-7001,4382,-5062,1946,-114,6999,228,-3731,55,620,3247,6205
77,1.3083296768901673,75,2666,-2810,-991,-253,-7001,4382,-5062,1946,-114,6999,228,-3731,55,620,3247,6205
78,1.3246528089608944,95,-1131,1936,6353,1651,7440,-7850,5689,-7316,-5668,1125,40,1322,-76,-783,356,6299
79,1.3406620428697649,-18,-4963,-6065,3859,1911,2187,2749,-4043,-6521,876,-3220,19,8165,42,-2222,-6387,-119
80,1.3561161816640708,-18,-4963,-6065,3859,1911,2187,2749,-4043,-6521,876,-3220,19,8165,42,-2222,-6387,-119
81,1.3716964784389596,-76,7242,4937,7180,6734,1864,-1289,5976,-4892,245,-6921,19,-273,79,4170,-5689,6222
82,1.387127096253835,-36,-7384,-6018,4030,2901,4354,-7010,7164,-6092,-42,803,51,5895,59,7294,1565,-1331
83,1.40177638989744,-86,2899,5359,-2856,4987,-2190,6059,-2837,-4435,7724,-2135,53,-475,-36,6873,6927,3905
84,1.4170380843145858,79,-7570,7682,4860,-7944,-7399,-2395,2029,-3509,-814,-6275,241,-1256,9,7454,-4952,6301
85,1.432522586555066,79,-7570,7682,4860,-7944,-7399,-2395,2029,-3509,-814,-6275,241,-1256,9,7454,-4952,6301
86,1.44920623109234,79,-7570,7682,4860,-7944,-7399,-2395,2029,-3509,-814,-6275,241,-1256,9,7454,-4952,6301
87,1.466224301191701,-104,6944,4942,-5728,3086,3550,-5443,2403,6587,5541,244,241,3077,-96,7302,5217,-4166
88,1.4834942595980565,29,-7580,3072,5062,-8150,-8118,-7894,-6308,8123,2153,-5910,241,4439,67,6511,2216,5411
89,1.498605419746846,29,-7580,3072,5062,-8150,-8118,-7894,-6308,8123,2153,-5910,241,4439,67,6511,2216,5411
90,1.5160862116597345,146,642,6621,3293,5889,1692,5416,-3495,-5918,4161,-1535,231,-878,74,3632,-3802,-2084
91,1.534054101673924,81,523,-5522,543,1519,6477,-5757,5056,6315,5375,3871,229,-1658,1,6470,1942,-5220
92,1.5573197715642477,-67,2693,1321,3469,-559,-2795,544,-6959,671,-914,-1511,102,1033,22,3230,6799,2118
93,1.5721080528135796,-67,2693,1321,3469,-559,-2795,544,-6959,671,-914,-1511,102,1033,22,3230,6799,2118
94,1.5874762331194208,-67,2693,1321,3469,-559,-2795,544,-6959,671,-914,-1511,102,1033,22,3230,6799,2118
95,1.6034846117199482,-23,7896,-6044,5600,4672,3113,-3148,2819,-5428,-711,-6643,90,4403,-65,-5458,3166,-6216
96,1.6197696825694148,-23,7896,-6044,5600,4672,3113,-3148,2819,-5428,-711,-6643,90,4403,-65,-5458,3166,-6216
97,1.6346396457654966,-23,7896,-6044,5600,4672,3113,-3148,2819,-5428,-711,-6643,90,4403,-65,-5458,3166,-6216
98,1.6492217977041814,117,-7633,6698,3997,2628,7913,-3447,-1649,7353,6132,-2339,50,420,-103,-7962,6428,3369
99,1.6648405833545021,60,-741,4080,-3730,2573,-1967,-2369,3768,-6035,-7459,-1385,30,-4660,71,-1394,940,-4071
100,1.6824043401766553,-18,620,190,3136,4323,7539,-835,6968,595,5821,6977,30,376,117,2059,1363,-1145
101,1.6978674597085623,-64,-1678,2553,683,-1251,1293,-3089,-5488,-7340,-4943,-1288,46,5106,129,-838,3410,-3452
102,1.7140481829401908,-64,-1678,2553,683,-1251,1293,-3089,-5488,-7340,-4943,-1288,46,5106,129,-838,3410,-3452
103,1.7301660410086137,114,84,-1400,-1158,-6633,-980,7557,2884,5780,5179,-3659,52,4548,34,-506,-1845,155
104,1.7474787648321157,1,-1710,-2566,6255,1150,2571,7992,4685,-6805,5180,5282,127,-1818,-71,3881,-2000,6997
105,1.7635470150166486,1,-1710,-2566,6255,1150,2571,7992,4685,-6805,5180,5282,127,-1818,-71,3881,-2000,6997
106,1.7794339398324792,-3,-5496,3119,-4336,-5153,-5814,2584,-7123,-642,3272,-3508,94,4578,70,7491,-1833,5770
107,1.7943945657129123,-3,-5496,3119,-4336,-5153,-5814,2584,-7123,-642,3272,-3508,94,4578,70,7491,-1833,5770
108,1.809159753636985,118,3664,-2364,-6911,95,-54,6835,-8089,5983,-5776,6712,57,1972,33,-2417,4243,-274
109,1.8242704861316028,118,3664,-2364,-6911,95,-54,6835,-8089,5983,-5776,6712,57,1972,33,-2417,4243,-274
110,1.8403070899074472,147,597,-7459,-4826,-5067,8188,-5156,7111,2194,4215,6288,26,4016,141,-5538,6160,4867
111,1.8566315049406887,49,-1461,-5056,-4815,2155,4235,-1472,-1704,3269,-2354,-7503,115,-6836,95,-1847,-6583,6425
112,1.8726826489583628,49,-1461,-5056,-4815,2155,4235,-1472,-1704,3269,-2354,-7503,115,-6836,95,-1847,-6583,6425
113,1.8904320076909327,49,-1461,-5056,-4815,2155,4235,-1472,-1704,3269,-2354,-7503,115,-6836,95,-1847,-6583,6425
114,1.9073876402812595,-21,2014,4446,4411,2639,6112,-5897,-5081,8049,7300,-2035,115,-2378,145,3128,6838,6604
115,1.9252640123027551,32,3389,-4641,-1886,6254,-10,6607,5880,-106,-1031,7207,92,-3167,117,6519,2129,6512
116,1.9425698936595137,-89,-4753,-4978,8093,357,-6619,6890,4022,2274,6205,-754,237,-7794,118,-2160,2846,-7582
117,1.9606823307836592,-89,-4753,-4978,8093,357,-6619,6890,4022,2274,6205,-754,237,-7794,118,-2160,2846,-7582
118,1.9782075987303802,-89,-4753,-4978,8093,357,-6619,6890,4022,2274,6205,-754,237,-7794,118,-2160,2846,-7582
119,1.9945850428808838,92,2259,4048,-6215,-4770,-8014,-5909,-1505,4964,-5391,211,107,-1761,52,-8107,-4241,-7300
120,2.012080375035602,25,-3340,-1547,7221,4437,3569,7559,4207,-3823,-4859,775,50,4716,15,599,-3075,4149
121,2.0288589587989416,57,2255,3448,-3091,6658,-7047,3567,-4937,-4334,5354,-810,234,-5953,139,-2890,-4218,-2603
122,2.0515549933328714,57,2255,3448,-3091,6658,-7047,3567,-4937,-4334,5354,-810,234,-5953,139,-2890,-4218,-2603
123,2.067392310264812,-77,-3293,-6888,-6291,-1824,-1508,7377,2262,1706,-5021,-436,17,5806,-65,-1630,5020,4910
124,2.0845010430485242,-77,-3293,-6888,-6291,-1824,-1508,7377,2262,1706,-5021,-436,17,5806,-65,-1630,5020,4910
125,2.1011256713101356,-77,-3293,-6888,-6291,-1824,-1508,7377,2262,1706,-5021,-436,17,5806,-65,-1630,5020,4910
126,2.1180663360044614,-77,-3293,-6888,-6291,-1824,-1508,7377,2262,1706,-5021,-436,17,5806,-65,-1630,5020,4910
127,2.1347358679540767,64,7288,7824,-2229,7828,-3414,2593,2208,-7682,-8070,4084,17,-7561,-100,2493,-2213,4283
128,2.152362917593607,64,7288,7824,-2229,7828,-3414,2593,2208,-7682,-8070,4084,17,-7561,-100,2493,-2213,4283
129,2.1709586039315103,-49,3851,3488,-5701,5078,-4187,-5943,-2439,-1980,-2187,-5721,229,-3400,10,3310,-3147,-2008
130,2.189919079277675,-71,-4898,-4261,-1701,-7954,-7186,1348,-8091,2106,-7959,-129,16,-7555,-79,-6995,-7931,-3420
131,2.2079280240923254,-57,4560,-2653,-3737,1311,3288,-8090,-601,-6111,3349,-1423,16,-3383,71,68,-3087,-2464
132,2.2234664107584106,-57,4560,-2653,-3737,1311,3288,-8090,-601,-6111,3349,-1423,16,-3383,71,68,-3087,-2464
133,2.23888077771477,57,1767,-2441,5162,5720,-6380,-1889,1986,6208,-4263,-1930,16,4092,70,3974,6581,5287
134,2.2537327794356505,57,1767,-2441,5162,5720,-6380,-1889,1986,6208,-4263,-1930,16,4092,70,3974,6581,5287
135,2.2686767268033963,115,8035,-456,-377,-5657,-1885,3529,7838,6403,-2421,-7183,104,257,47,-3759,-5774,-4331
136,2.2843848921755536,115,8035,-456,-377,-5657,-1885,3529,7838,6403,-2421,-7183,104,257,47,-3759,-5774,-4331
137,2.3038149318019894,12,-4768,6185,-3382,-2018,-1702,-4540,-8057,1995,8146,-1038,24,7749,3,-5134,1083,-5789
138,2.3205909496403,12,-4768,6185,-3382,-2018,-1702,-4540,-8057,1995,8146,-1038,24,7749,3,-5134,1083,-5789
139,2.338671740355757,18,-5815,-1025,-5430,7274,2829,2405,1793,-5049,6733,7445,96,-4642,5,-1300,2883,2979
140,2.356957805073518,70,3373,2271,1779,-5718,1313,-575,1467,-643,5404,7212,114,-5091,10,-362,-1699,344
141,2.3754978963691307,70,3373,2271,1779,-5718,1313,-575,1467,-643,5404,7212,114,-5091,10,-362,-1699,344
142,2.394239412779504,1,5926,-2305,-742,-3463,-5720,-1820,896,-7052,548,-7985,114,6481,28,-6155,1249,-459
143,2.410554847075145,-8,-3266,-1818,-3369,6616,-3540,3196,3142,6252,3679,-4676,50,8150,87,7538,-5607,-5869
144,2.425680547465764,121,1521,6092,-1790,-5599,-7385,5963,-2944,-6031,4915,2801,50,966,92,-5156,4540,4554
145,2.441157779585329,13,6156,-2624,-7150,6105,8112,6424,-648,2466,2287,-241,97,5651,17,3399,-90,-3982
146,2.460181547748871,132,-1820,637,5473,6376,-3543,-5253,4582,5735,-54,-7636,20,-4413,76,7843,-7998,6182
147,2.475592493471859,88,-2091,-5423,6256,3205,-2347,3520,5758,5052,1976,1094,108,4026,37,3432,6143,-6949
148,2.4907455637294524,88,-2091,-5423,6256,3205,-2347,3520,5758,5052,1976,1094,108,4026,37,3432,6143,-6949
149,2.5055552276873576,-16,7011,-4088,5820,1906,-2840,7027,-4807,-7122,-899,-7688,120,5563,97,1356,-7871,-8011
150,2.5226207673997516,97,-170,-1532,-4636,318,4723,6715,-5868,-1236,7014,947,110,-2977,17,5172,-1530,4526
151,2.5427500215965355,97,-170,-1532,-4636,318,4723,6715,-5868,-1236,7014,947,110,-2977,17,5172,-1530,4526
152,2.5614928209694234,-53,5754,-6771,7112,-1986,6875,-3693,234,-7200,6503,829,246,-6224,57,7145,4294,-1991
153,2.5774849487114353,-53,5754,-6771,7112,-1986,6875,-3693,234,-7200,6503,829,246,-6224,57,7145,4294,-1991
154,2.594289191725063,-5,-8062,-629,6358,5589,-727,-5895,1881,-2784,552,-1466,246,1057,137,1016,3259,7606
155,2.616153438895489,75,-6654,-7525,5900,2116,6785,3045,3218,1239,643,-6673,236,6046,64,7829,-5515,4990
156,2.632093820482753,22,-6046,-4389,-6656,-2009,6360,-5548,-6730,6198,1806,-622,43,-2040,-104,3462,6195,-67
157,2.647674117257642,2,2186,-617,3840,-7303,6738,-2874,-3461,7116,638,-7599,37,6850,32,-7514,-4815,2358
158,2.6636923319041133,67,-5038,6849,6948,4584,6189,1269,7867,740,6372,134,35,-5727,142,2692,-3970,86
159,2.6788201705655896,-27,-1131,4992,5052,5885,2581,4868,3826,7081,-7942,860,29,-6511,115,-1991,-5975,707
160,2.694012585006958,-27,-1131,4992,5052,5885,2581,4868,3826,7081,-7942,860,29,-6511,115,-1991,-5975,707
161,2.7086067112624437,98,-6445,2908,1856,3312,-3945,7841,-5437,2792,6668,7263,25,3887,-90,-3882,-473,7932
162,2.733543653654861,98,-6445,2908,1856,3312,-3945,7841,-5437,2792,6668,7263,25,3887,-90,-3882,-473,7932
163,2.7500900212030936,98,-6445,2908,1856,3312,-3945,7841,-5437,2792,6668,7263,25,3887,-90,-3882,-473,7932
164,2.7666150060427532,98,-6445,2908,1856,3312,-3945,7841,-5437,2792,6668,7263,25,3887,-90,-3882,-473,7932
165,2.783834928911047,118,3211,-2396,-2930,3402,8162,-7302,-6548,2631,-566,-7114,25,858,29,2008,-5302,2829
166,2.800495480123062,-74,4124,8093,-7981,6135,-5322,1574,-1143,-720,4139,-6724,244,4917,-28,211,-5123,-4508
167,2.8172218900774824,-93,7126,-5405,6478,6656,-7057,-2908,1563,-963,4489,-1194,21,-3242,67,-7624,-4222,-1713
168,2.8329565700082706,34,-4901,8190,1039,-3925,-6572,719,-1156,161,4669,-4711,59,-5876,-75,1472,3377,4086
169,2.8486164104590523,34,-4901,8190,1039,-3925,-6572,719,-1156,161,4669,-4711,59,-5876,-75,1472,3377,4086
170,2.863989722614951,48,-7643,331,6255,-5322,-1982,-4000,-5628,1262,4962,5560,53,1790,93,4607,528,-119
171,2.879478929051318,106,-469,3985,513,-6730,4498,511,5287,-4537,-7827,-1665,239,1294,118,-3027,-6543,-6417
172,2.895524085910591,134,-4021,-5922,6759,6300,7142,4947,-6525,1561,7222,-1405,127,-7182,-86,7812,6609,-338
173,2.911286563362525,-59,7368,-2938,-7003,-874,708,-5188,3624,809,2703,-8050,127,-4915,136,-5347,3503,-3687
174,2.925851609134351,-59,7368,-2938,-7003,-874,708,-5188,3624,809,2703,-8050,127,-4915,136,-5347,3503,-3687
175,2.9435209965368565,36,594,5730,2566,2506,-2655,4844,-293,3634,4091,3880,127,6807,77,-1330,3103,-6103
176,2.959904855499932,3,3040,-2775,-7715,6646,-3944,-1697,5819,4388,-7970,4033,127,-1798,148,4476,-4125,3774
177,2.9766641948255557,136,3398,7718,-3644,-8104,6588,-229,5975,5608,-7419,6649,57,3623,-43,6325,-3843,-6013
178,2.993812699447214,83,4537,-2468,6061,-1734,-4210,-1940,-5309,-231,-370,4628,57,-4566,30,-5766,4977,990
179,3.010797412521201,-29,-675,-3469,-1126,7129,1997,-4100,-1655,-2208,-577,-6816,126,-1540,78,-3430,-75,-602
180,3.027596523684771,37,8043,-6841,-5107,-6802,7994,4671,-3778,6723,-6411,7334,90,-451,-49,6288,1112,1134
181,3.0516328263920784,-80,-488,-3813,6467,6755,-661,3991,-5628,-2242,3322,304,234,4529,117,-3448,5269,4660
182,3.067541561570654,-48,-7403,-7953,-950,3653,40,3235,-1092,-4031,2676,-73,237,60,-106,-7524,-4419,-4247
183,3.0825235701596605,-48,-7403,-7953,-950,3653,40,3235,-1092,-4031,2676,-73,237,60,-106,-7524,-4419,-4247
184,3.0977279589178295,-30,2900,-5841,4272,-7801,-5134,-3091,4447,-7349,-6749,-8069,48,-7805,8,1031,-1816,6476
185,3.113182097712136,31,-7587,2861,6328,6411,-3758,-8087,-8098,8086,-2020,-1172,48,626,-15,5624,2423,-3207
186,3.127768098538364,68,3536,2887,-4203,-376,8029,-2900,6699,7083,5231,-3593,238,3095,-89,-387,-112,-812
187,3.1435019231608092,17,6525,-7874,-1426,-1238,1207,-7197,2670,-30,-4309,3610,252,3121,4,2963,4694,5441
188,3.1609313965731216,49,408,7618,-36,-1809,-5322,3903,1773,3237,1803,-6386,83,7365,-97,508,7108,476
189,3.177926801001395,-79,-5873,121,262,1138,4237,1303,-4888,4085,-7800,1153,26,4338,143,-2802,-6896,2966
190,3.1949358903631553,-79,-5873,121,262,1138,4237,1303,-4888,4085,-7800,1153,26,4338,143,-2802,-6896,2966
191,3.211683255371978,-79,-5873,121,262,1138,4237,1303,-4888,4085,-7800,1153,26,4338,143,-2802,-6896,2966
192,3.2267644797287645,-79,-5873,121,262,1138,4237,1303,-4888,4085,-7800,1153,26,4338,143,-2802,-6896,2966
193,3.243801794265842,-79,-5873,121,262,1138,4237,1303,-4888,4085,-7800,1153,26,4338,143,-2802,-6896,2966
194,3.2600218616812455,-79,-5873,121,262,1138,4237,1303,-4888,4085,-7800,1153,26,4338,143,-2802,-6896,2966
195,3.275572650318303,4,-370,2455,5800,-6972,7334,6562,674,1375,927,6891,32,-1479,18,1789,-3635,743
196,3.2917606436708464,92,-5563,1083,-2482,-5752,4088,6901,1128,280,-340,-6117,240,7573,135,596,-1665,6370
197,3.306519416782347,92,-5563,1083,-2482,-5752,4088,6901,1128,280,-340,-6117,240,7573,135,596,-1665,6370
198,3.3224307178859513,92,-5563,1083,-2482,-5752,4088,6901,1128,280,-340,-6117,240,7573,135,596,-1665,6370
199,3.3386905571393015,84,247,5,3154,6847,-5487,-4778,7421,7860,-6265,2429,240,-6573,105,3937,-1229,-1638
200,3.355887386682336,41,3004,-4126,-5735,-6703,7846,4330,-4734,2066,-4737,2346,245,-2233,141,6065,-500,307
201,3.372351644629647,118,4435,6201,-7215,2793,-4289,4874,4938,-2154,3667,-126,253,-1204,117,-1322,-2203,1600
202,3.389431724583871,118,4435,6201,-7215,2793,-4289,4874,4938,-2154,3667,-126,253,-1204,117,-1322,-2203,1600
203,3.4062522184560144,-90,-7955,5260,2203,-6435,979,774,-1802,-1482,-8106,418,115,-6629,49,7167,4125,-7245
204,3.423206568083827,117,2381,5346,2987,-4353,-1075,-459,-6005,-5848,-2390,2414,115,5816,-79,-7932,-5176,1265
205,3.439988573080538,148,3275,5869,-6439,5902,6313,5594,-733,7368,-1776,6138,124,-8141,89,785,1600,5882
206,3.4588489773505797,-4,1822,7592,1665,-7665,6748,-3475,6482,-4148,2343,7628,28,-5073,128,-6945,259,5947
207,3.4761022572442477,145,5655,4883,1594,3015,-7118,-6086,-7421,6402,-6418,-2582,48,2536,57,1485,-1346,-1691
208,3.4906151292071548,145,5655,4883,1594,3015,-7118,-6086,-7421,6402,-6418,-2582,48,2536,57,1485,-1346,-1691
209,3.5068433220518163,145,5655,4883,1594,3015,-7118,-6086,-7421,6402,-6418,-2582,48,2536,57,1485,-1346,-1691
210,3.522784131293252,-67,3253,1366,-3252,-4641,-496,2490,-4075,-1464,4220,-2539,116,-4337,68,-6232,7627,4496
211,3.539145752239411,-99,4921,-4506,3615,5448,-1881,-2379,6867,-692,-7029,2723,18,575,-27,195,1500,-1673
212,3.560952266096689,-99,4921,-4506,3615,5448,-1881,-2379,6867,-692,-7029,2723,18,575,-27,195,1500,-1673
213,3.5790103911410585,118,20,-4852,-2474,-3643,-2568,4179,-7877,6954,6370,7324,49,7354,149,6541,4595,2722
214,3.596982130042791,118,20,-4852,-2474,-3643,-2568,4179,-7877,6954,6370,7324,49,7354,149,6541,4595,2722
215,3.6139600006500343,118,20,-4852,-2474,-3643,-2568,4179,-7877,6954,6370,7324,49,7354,149,6541,4595,2722
216,3.6316225455857962,-53,7137,3689,-6630,6049,6435,-5260,6565,1653,5672,3796,116,-2599,71,4517,-7996,-4851
217,3.6484832389500577,9,8136,4110,494,-7340,2337,273,-736,266,1805,3931,116,2793,98,-4262,2263,6288
218,3.6648277537293583,146,-3092,-2141,-121,-6249,-5252,-4414,5546,-7660,-7146,4643,47,720,-89,7087,-1519,7824
219,3.681314249693586,148,4083,7006,4376,757,-7272,-768,6641,-19,2365,-1839,237,4244,127,-7417,-1946,1108
220,3.6974504968913817,-55,-7337,-7235,-7408,-7247,3138,-690,-1199,4382,-175,-7162,237,1640,43,6520,1090,2040
221,3.728921139715473,-55,-7337,-7235,-7408,-7247,3138,-690,-1199,4382,-175,-7162,237,1640,43,6520,1090,2040
222,3.7441208242777564,-55,-7337,-7235,-7408,-7247,3138,-690,-1199,4382,-175,-7162,237,1640,43,6520,1090,2040
223,3.759936330846952,83,3026,7101,6669,4854,-3066,-546,5053,-2883,1134,3518,237,-6059,12,74,5818,4095
224,3.7785328724931984,-101,4812,4364,1897,2972,735,-6507,-5916,6973,2891,3769,237,5999,3,-7693,-1444,2998
225,3.795190857780184,-54,301,-7321,5799,-4882,3946,-5462,-3380,1765,4850,400,61,6683,-1,6460,2306,-1678
226,3.8115854080975464,-54,301,-7321,5799,-4882,3946,-5462,-3380,1765,4850,400,61,6683,-1,6460,2306,-1678
227,3.8287557230819496,-54,301,-7321,5799,-4882,3946,-5462,-3380,1765,4850,400,61,6683,-1,6460,2306,-1678
228,3.8448496325167705,-54,301,-7321,5799,-4882,3946,-5462,-3380,1765,4850,400,61,6683,-1,6460,2306,-1678
229,3.861129143862008,-54,301,-7321,5799,-4882,3946,-5462,-3380,1765,4850,400,61,6683,-1,6460,2306,-1678
230,3.878586414795466,2,-267,-1639,6357,-1754,294,6358,-3810,-2964,3734,1934,61,-7511,79,-5034,370,-1908
231,3.894833852077843,2,-267,-1639,6357,-1754,294,6358,-3810,-2964,3734,1934,61,-7511,79,-5034,370,-1908
232,3.910802886494596,2,-267,-1639,6357,-1754,294,6358,-3810,-2964,3734,1934,61,-7511,79,-5034,370,-1908
233,3.9265516790130426,80,2569,8071,1521,1185,-649,-3853,-6190,1452,7527,-298,89,3483,-68,6841,-1133,-3801
234,3.9421619115799342,28,-154,-6840,5863,1972,3337,-1616,1171,5792,-5456,2584,50,2954,48,1187,-1391,1362
235,3.9582186151018375,-87,5820,1407,4810,-3618,-4084,7186,-2026,3704,-6269,-2596,123,6775,72,-6638,-5088,-2226
236,3.975929057304804,92,7030,2896,1694,-7405,7054,-7167,-8170,-3473,508,1202,236,-4265,2,3439,-4800,-7509
237,3.9928184034985534,33,-183,7414,-4399,-3509,-5343,7335,6657,-4378,5268,-3079,236,639,133,3139,242,2188
238,4.011433761928344,6,4716,-6277,-9,-1943,659,4375,5349,-6963,-4287,3814,28,-3151,50,3829,-5233,-7926
239,4.0279861166349775,6,-5183,166,-5869,-5427,-2642,3943,2192,-6894,-1809,1435,48,-330,39,3118,5308,3232
240,4.046324355161658,6,-5183,166,-5869,-5427,-2642,3943,2192,-6894,-1809,1435,48,-330,39,3118,5308,3232
241,4.070465860795146,6,-5183,166,-5869,-5427,-2642,3943,2192,-6894,-1809,1435,48,-330,39,3118,5308,3232
242,4.085933684522939,-13,5110,-2572,-7756,-5299,-1278,7119,6653,3882,-7341,-3406,48,-2183,39,6285,-4978,2009
243,4.101346340862612,-95,921,6439,-1042,1651,6746,-3880,-7950,-1828,106,4024,48,-5571,1,-2779,2077,-3263
244,4.117276886403933,-95,921,6439,-1042,1651,6746,-3880,-7950,-1828,106,4024,48,-5571,1,-2779,2077,-3263
245,4.133687259925639,11,-111,-181,-5407,2587,-1829,8002,-3651,-7184,-1056,-4625,60,-2197,-70,7021,7346,3444
246,4.150601410061334,92,-6250,-5953,5809,265,-2925,-316,-3487,5987,-316,-29,60,-6610,82,631,-3117,3074
247,4.166821477476738,119,3208,7353,-6561,326,-2069,-4461,-5974,-7039,7761,-2534,57,-3559,53,3636,-1304,2153
248,4.182142188169546,-101,-746,-2971,-7270,998,-7295,5364,-1639,-2381,-6932,-5443,36,-637,-9,1979,-2864,-5782
249,4.199412574230073,99,662,-4574,5287,2123,5249,-1046,1538,-6283,-2088,2259,35,3387,-44,2260,6955,1700
250,4.216185598489183,-70,6848,1022,-2223,5370,7593,-2646,969,4454,-1554,-7689,122,-6613,-88,4264,4526,977
251,4.231324128504947,-91,6153,7328,5490,-588,1875,-4843,2903,2905,6627,-2757,62,1201,33,-7681,4822,-3034
252,4.249090593404375,-91,6153,7328,5490,-588,1875,-4843,2903,2905,6627,-2757,62,1201,33,-7681,4822,-3034
253,4.26624380222192,-91,6153,7328,5490,-588,1875,-4843,2903,2905,6627,-2757,62,1201,33,-7681,4822,-3034
254,4.2836826840260045,-86,1132,1823,427,-6212,2854,-3936,6657,1286,-1847,-3809,45,5559,-50,-3299,-4036,5639
255,4.300077234343367,9,-5847,3815,4269,4358,-4413,-1515,-8023,-2571,-2187,5785,101,5059,-6,6341,-6838,-6216
256,4.316266938312596,33,1656,-1074,-5994,4111,-1148,7976,4376,1981,4380,-3024,52,5307,127,-3120,-5859,-3520
257,4.332272323333924,33,1656,-1074,-5994,4111,-1148,7976,4376,1981,4380,-3024,52,5307,127,-3120,-5859,-3520
258,4.348213987883702,33,1656,-1074,-5994,4111,-1148,7976,4376,1981,4380,-3024,52,5307,127,-3120,-5859,-3520
259,4.3644075407404745,33,1656,-1074,-5994,4111,-1148,7976,4376,1981,4380,-3024,52,5307,127,-3120,-5859,-3520
260,4.380145641904635,-39,-4096,989,736,7400,-902,-808,1981,-8181,-4888,-204,229,6399,-71,4689,1687,6873
261,4.396725366478242,17,2485,-1338,6780,30,-6707,-1467,-5346,2838,5037,-1034,99,-4568,68,1315,1139,7843
262,4.413842224691212,36,3849,1987,1427,6119,-6538,822,684,6679,2986,-2942,24,-249,17,7518,6096,1958
263,4.429154809954762,-34,4505,-3313,-5639,2732,2666,2723,-7907,-7961,-4027,3778,46,-4043,110,-1468,-2653,7421
264,4.445272240369015,-34,4505,-3313,-5639,2732,2666,2723,-7907,-7961,-4027,3778,46,-4043,110,-1468,-2653,7421
265,4.464643263719787,-34,4505,-3313,-5639,2732,2666,2723,-7907,-7961,-4027,3778,46,-4043,110,-1468,-2653,7421
266,4.48324750314112,99,292,5354,4516,-2929,-7882,2595,2308,-6979,2702,-5350,123,2302,-52,-3734,7764,-8006
267,4.499769494401579,-58,7891,-735,4152,4684,-3655,-5061,-635,-1653,4015,-492,102,3045,-81,4816,1111,-40
268,4.515972883304296,37,8006,7919,-4399,6977,-1648,-5135,-5610,3475,-5294,-7182,48,6393,49,-6135,248,-4490
269,4.531748618035545,37,8006,7919,-4399,6977,-1648,-5135,-5610,3475,-5294,-7182,48,6393,49,-6135,248,-4490
270,4.546705822682606,113,7321,5700,-6174,-6778,-5877,7291,-6489,6156,12,5808,246,-788,100,-2580,-4749,-5146
271,4.56267229117433,141,-7454,3993,2972,-4556,4219,-5876,-3451,4412,-7763,-1480,84,-6531,79,-5598,5238,2110
272,4.585524419480845,122,-5296,1472,-1625,7809,5665,7592,-3071,-6585,-2178,-1212,237,5357,62,5381,1235,4011
273,4.601799226630196,38,4975,-7958,-3389,6291,-2853,3215,104,-7485,-3915,7588,109,7664,114,2095,4628,-6962
274,4.618874602388534,21,1872,1561,5946,-2521,3994,-6183,1920,-6353,1284,2242,246,-2989,77,2315,-7433,1687
275,4.634812418050769,74,-233,-6440,-3707,6337,5849,-1129,2268,5522,193,-6985,115,3390,113,4190,4988,-1976
276,4.651743674353323,-33,-4300,-6929,-3968,-1162,-5176,-7981,705,7015,6260,1530,53,5436,-104,3327,-6100,6365
277,4.667906008455578,15,3787,7005,6874,3064,6944,6702,3001,-6438,-1089,1246,50,-3261,-84,4341,-5667,-3466
278,4.684043538615889,15,3787,7005,6874,3064,6944,6702,3001,-6438,-1089,1246,50,-3261,-84,4341,-5667,-3466
279,4.700924331726209,-95,2642,6540,-4625,-3382,7663,1676,-2484,4616,2634,-492,50,-3434,-92,4979,-5374,-6942
280,4.716556802310016,145,63,2656,7399,8,5165,-2280,-7920,6638,7308,6860,47,7931,-41,2063,-2135,-2668
281,4.731997256170835,145,63,2656,7399,8,5165,-2280,-7920,6638,7308,6860,47,7931,-41,2063,-2135,-2668
282,4.747489456186402,-26,-7720,2658,5291,5503,596,-1177,-7847,1923,303,1503,224,3044,101,5024,-5085,3983
283,4.763205319333647,-26,-7720,2658,5291,5503,596,-1177,-7847,1923,303,1503,224,3044,101,5024,-5085,3983
284,4.778664162323839,-26,-7720,2658,5291,5503,596,-1177,-7847,1923,303,1503,224,3044,101,5024,-5085,3983
285,4.793874538240408,-26,-7720,2658,5291,5503,596,-1177,-7847,1923,303,1503,224,3044,101,5024,-5085,3983
286,4.811269371664832,94,6747,6719,-4336,500,62,-7942,180,753,1484,5615,239,-3196,111,-2046,-7113,-1051
287,4.826483596468945,-79,-2474,-3859,6173,5832,-621,-6607,-7639,665,2460,-5651,94,5777,-29,5719,-3893,831
288,4.843248067644626,-72,3478,485,-2313,4303,569,6086,4607,-5186,4866,-1269,94,2757,19,-3533,3956,184
289,4.860828930633638,-53,-5996,-2123,5002,-3206,-3586,3933,-432,4147,-2401,-7737,50,-1620,103,-4317,6378,5797
290,4.8791402269475155,66,5106,6678,-3952,4486,-6072,-5466,3597,-2271,1863,-560,32,-6873,56,-4725,-1100,-6935
291,4.896807903733335,66,5106,6678,-3952,4486,-6072,-5466,3597,-2271,1863,-560,32,-6873,56,-4725,-1100,-6935
292,4.913809295320009,-7,4520,-6671,1601,5756,5322,-7954,-2644,-3925,3260,-8039,53,3687,-105,-2307,3385,5934
293,4.929766355419961,-7,4520,-6671,1601,5756,5322,-7954,-2644,-3925,3260,-8039,53,3687,-105,-2307,3385,5934
294,4.94516019497609,-7,4520,-6671,1601,5756,5322,-7954,-2644,-3925,3260,-8039,53,3687,-105,-2307,3385,5934
295,4.96075845322618,-7,4520,-6671,1601,5756,5322,-7954,-2644,-3925,3260,-8039,53,3687,-105,-2307,3385,5934
296,4.9759252084172605,-7,4520,-6671,1601,5756,5322,-7954,-2644,-3925,3260,-8039,53,3687,-105,-2307,3385,5934
297,4.992220970621013,26,-1118,-2849,-1232,-3052,-741,7766,7479,7797,-8092,-4778,119,7631,118,5340,4996,1963
298,5.009054294118301,26,-1118,-2849,-1232,-3052,-741,7766,7479,7797,-8092,-4778,119,7631,118,5340,4996,1963
299,5.0263875453420335,26,-1118,-2849,-1232,-3052,-741,7766,7479,7797,-8092,-4778,119,7631,118,5340,4996,1963
300,5.042804333676312,-5,-1932,7953,-5737,-7061,3978,7423,-2265,1312,2954,2839,119,-1285,36,3000,2737,-4642
301,5.059581634477137,-25,-4722,4798,-7287,-8179,-2660,5828,2307,-4889,5066,5726,229,-4034,2,-7142,-6791,1873
302,5.0841007587440314,-25,-4722,4798,-7287,-8179,-2660,5828,2307,-4889,5066,5726,229,-4034,2,-7142,-6791,1873
303,5.1011816940065975,139,-5751,938,3395,2572,6470,-5620,-3890,-498,-4889,-4300,230,4049,129,-7076,4308,6375
304,5.118109956729951,139,-5751,938,3395,2572,6470,-5620,-3890,-498,-4889,-4300,230,4049,129,-7076,4308,6375
305,5.133443924702075,15,-1099,7374,4550,-6334,-2690,-4436,-65,7169,1787,7304,118,580,-42,4636,7829,4710
306,5.149308183846817,0,1044,-1765,-2545,-1099,-1864,-717,-2293,-5447,7383,1336,118,-246,28,619,-7174,-2273
307,5.16485726186719,0,1044,-1765,-2545,-1099,-1864,-717,-2293,-5447,7383,1336,118,-246,28,619,-7174,-2273
308,5.180794222221082,66,7208,-2075,4705,6549,2935,271,-7027,-5517,5483,1800,18,-2258,-69,-7060,1577,-6193
309,5.1962906987783635,66,7208,-2075,4705,6549,2935,271,-7027,-5517,5483,1800,18,-2258,-69,-7060,1577,-6193
310,5.212091237451557,66,7208,-2075,4705,6549,2935,271,-7027,-5517,5483,1800,18,-2258,-69,-7060,1577,-6193
311,5.228350649050736,-73,947,-7952,5828,-5325,-1152,-496,2718,1080,484,6980,18,7216,-72,966,1287,-5655
312,5.244814906998047,-73,947,-7952,5828,-5325,-1152,-496,2718,1080,484,6980,18,7216,-72,966,1287,-5655
313,5.261581516444586,-42,-5710,4193,3877,7072,-4454,-7982,-7113,-1183,-294,7636,43,-3449,58,883,-4759,5648
314,5.279073855020104,-42,-5710,4193,3877,7072,-4454,-7982,-7113,-1183,-294,7636,43,-3449,58,883,-4759,5648
315,5.2951566454464665,-42,-5710,4193,3877,7072,-4454,-7982,-7113,-1183,-294,7636,43,-3449,58,883,-4759,5648
316,5.3127747143483965,27,3325,-468,5743,-7268,4577,644,-5313,-4415,-5710,-1265,43,694,141,3970,-4881,3852
317,5.329722649163637,24,5788,-4735,-4712,4254,-7390,-7340,-1484,-5480,-4455,-671,43,7754,-98,594,-2037,3820
318,5.346192466615177,24,5788,-4735,-4712,4254,-7390,-7340,-1484,-5480,-4455,-671,43,7754,-98,594,-2037,3820
319,5.3624728332687575,-77,5237,5128,599,-8137,-8060,-886,-7788,-5958,4056,-8084,88,6257,86,359,-1428,-910
320,5.377965033284324,-73,5567,1742,6283,917,4581,-3072,-3994,4099,4441,-6600,232,2643,-20,3882,724,1630
321,5.393405914799315,-73,5567,1742,6283,917,4581,-3072,-3994,4099,4441,-6600,232,2643,-20,3882,724,1630
322,5.409101250546328,-73,5567,1742,6283,917,4581,-3072,-3994,4099,4441,-6600,232,2643,-20,3882,724,1630
323,5.4247243127383635,-73,5567,1742,6283,917,4581,-3072,-3994,4099,4441,-6600,232,2643,-20,3882,724,1630
324,5.4412321914111645,19,1037,4458,556,7092,-1714,6392,5814,3559,4831,4986,246,-4241,148,2685,693,4272
325,5.459315120397479,19,1037,4458,556,7092,-1714,6392,5814,3559,4831,4986,246,-4241,148,2685,693,4272
326,5.477474171826314,-2,-3483,4841,-5061,1192,1382,-445,-7603,-10,8138,1609,23,870,127,-5155,6145,2816
327,5.4940893916961535,-71,-6094,-4600,-1026,7294,6183,-7485,-2463,-7949,-82,3311,81,-8005,-58,4268,-6844,4745
328,5.511062985761682,92,-6355,-1736,6437,-8053,6947,-4959,867,-4519,394,-8022,122,-6005,92,-4621,5682,-3817
329,5.528672501580182,8,-1799,4467,7154,1774,5939,778,3921,3046,4499,-6855,60,-3271,-103,4180,4881,2003
330,5.545708533154745,8,-1799,4467,7154,1774,5939,778,3921,3046,4499,-6855,60,-3271,-103,4180,4881,2003
331,5.561432094077075,18,1383,-6710,-958,1567,8098,5844,-754,1050,6341,8070,60,159,18,2560,7688,1358
332,5.5823880037873055,-72,-2382,-3657,-2158,3068,5562,280,663,8036,-1961,5921,41,776,96,5962,-3334,3420
333,5.59816245555604,48,2897,7006,7664,4177,-6890,40,-1869,-7112,8124,-8056,41,6345,38,3400,1693,-4116
334,5.614900412173091,48,2897,7006,7664,4177,-6890,40,-1869,-7112,8124,-8056,41,6345,38,3400,1693,-4116
335,5.648831349445632,48,2897,7006,7664,4177,-6890,40,-1869,-7112,8124,-8056,41,6345,38,3400,1693,-4116
336,5.667759750728936,-63,2577,-7504,-4992,-7923,4380,1053,7054,6566,-115,2459,118,-5993,20,4517,7494,6101
337,5.684992503222374,-56,-5090,2421,-6743,-2958,-7661,5785,-6285,-1104,-3700,2198,121,5490,127,3966,4215,-920
338,5.701533738920549,-56,-5090,2421,-6743,-2958,-7661,5785,-6285,-1104,-3700,2198,121,5490,127,3966,4215,-920
339,5.718508188294421,-56,-5090,2421,-6743,-2958,-7661,5785,-6285,-1104,-3700,2198,121,5490,127,3966,4215,-920
340,5.734128684561428,-56,-5090,2421,-6743,-2958,-7661,5785,-6285,-1104,-3700,2198,121,5490,127,3966,4215,-920
341,5.751210902786509,147,700,-6547,-4421,4977,4565,6826,5341,2642,-5904,-304,242,6932,43,2578,-7899,2449
342,5.767092268098111,-43,2453,3156,2820,4683,1654,2324,-4902,2734,-2510,-2572,242,-901,89,-4584,-6037,-1359
343,5.783327731063687,-43,2453,3156,2820,4683,1654,2324,-4902,2734,-2510,-2572,242,-901,89,-4584,-6037,-1359
344,5.79808992540856,-43,2453,3156,2820,4683,1654,2324,-4902,2734,-2510,-2572,242,-901,89,-4584,-6037,-1359
345,5.814176137068293,114,2425,-4191,-4347,2687,7395,-6613,2639,-6704,465,1256,52,8038,84,2221,-5429,-2663
346,5.829295850300513,122,-2657,7186,-1571,1928,6998,-1350,-5029,-3005,7089,7236,251,-1583,26,-2608,7753,-7256
347,5.844930886809349,33,1240,7153,-942,5206,-7640,1445,3950,6973,1010,6493,100,-6893,-7,-4366,-2424,5530
348,5.863574470414457,33,1240,7153,-942,5206,-7640,1445,3950,6973,1010,6493,100,-6893,-7,-4366,-2424,5530
349,5.8805044437544955,-16,-2422,3685,6965,-1965,-433,4621,2519,177,-3270,6716,233,1037,132,2788,3160,3543
350,5.8977324920520475,-16,-2422,3685,6965,-1965,-433,4621,2519,177,-3270,6716,233,1037,132,2788,3160,3543
351,5.914940012949368,-28,-3387,2111,2836,1868,6873,1884,3420,5165,2084,-2136,100,8089,38,-2234,2690,1131
352,5.931544541464921,42,-6524,-3510,-1219,-4730,2937,6578,-3240,-1993,-2141,-37,230,1684,26,6307,-1687,-5456
353,5.94799340386206,72,-7503,7646,2016,-2994,-4848,-3331,-5000,-7498,6359,1062,122,-7534,29,5542,-581,552
354,5.965657231760336,130,7631,-4732,-844,5999,3579,-3093,3699,2159,-4548,406,122,5326,2,124,7022,-4064
355,5.982003029502151,-88,-2836,8161,-5789,1998,-3860,-3181,2646,-2054,-504,-3903,122,-4381,16,887,-3368,-7906
356,5.998439489928317,54,7476,4679,-49,5705,5249,5316,-3485,3628,614,-6166,96,363,90,-2048,-4966,-6685
357,6.014523135663022,54,7476,4679,-49,5705,5249,5316,-3485,3628,614,-6166,96,363,90,-2048,-4966,-6685
358,6.030404928628795,54,7476,4679,-49,5705,5249,5316,-3485,3628,614,-6166,96,363,90,-2048,-4966,-6685
359,6.0464778830092145,54,7476,4679,-49,5705,5249,5316,-3485,3628,614,-6166,96,363,90,-2048,-4966,-6685
360,6.064279415550703,54,7476,4679,-49,5705,5249,5316,-3485,3628,614,-6166,96,363,90,-2048,-4966,-6685
361,6.080697059193325,54,7476,4679,-49,5705,5249,5316,-3485,3628,614,-6166,96,363,90,-2048,-4966,-6685
362,6.106157450291617,70,-1981,3715,-4064,-7756,4161,-304,-4886,1631,-221,-6761,235,4959,19,-7365,5889,1469
363,6.123610444683361,70,-1981,3715,-4064,-7756,4161,-304,-4886,1631,-221,-6761,235,4959,19,-7365,5889,1469
364,6.1390816896445255,70,-1981,3715,-4064,-7756,4161,-304,-4886,1631,-221,-6761,235,4959,19,-7365,5889,1469
365,6.154863839188347,-94,6790,-1445,7176,-1949,-419,2533,-5792,5307,-2216,-7203,235,5986,-43,-7372,20,-3795
366,6.170338933037055,-94,6790,-1445,7176,-1949,-419,2533,-5792,5307,-2216,-7203,235,5986,-43,-7372,20,-3795
367,6.186191217864996,-94,6790,-1445,7176,-1949,-419,2533,-5792,5307,-2216,-7203,235,5986,-43,-7372,20,-3795
368,6.201970373829617,107,4995,-511,-7401,2116,-1476,3666,-1390,-7138,1202,7055,96,-2000,2,1412,-2574,-4836
369,6.217178183821159,130,4559,1538,5484,-1666,-3314,4877,-514,-7077,1322,1234,111,-4757,-57,7894,-1388,678
370,6.231743657247156,-83,3061,-2713,3736,515,-2190,-7361,-2314,-369,2411,157,37,2139,104,1516,2747,3169
371,6.2471430563075145,33,-8121,-4439,-2522,-2321,-6330,3675,-3310,7589,6133,-4069,245,5585,43,-5463,6184,6398
372,6.263210451183704,15,6143,7563,-5549,3676,-2533,-4035,-5788,-4370,-6720,1088,245,-3601,-69,-6753,6430,5803
373,6.281800150363207,15,6143,7563,-5549,3676,-2533,-4035,-5788,-4370,-6720,1088,245,-3601,-69,-6753,6430,5803
374,6.298999118177099,71,3585,29,-7831,1507,5575,-1325,7010,-3090,-6745,-6801,104,7566,-3,-2410,-7770,-2727
375,6.316016760622288,71,3585,29,-7831,1507,5575,-1325,7010,-3090,-6745,-6801,104,7566,-3,-2410,-7770,-2727
376,6.333539034989809,-21,-6571,2785,1697,6069,-6154,-6646,4408,4923,-7694,176,44,6815,-26,-4773,-497,-5791
377,6.3496273849204,-21,-6571,2785,1697,6069,-6154,-6646,4408,4923,-7694,176,44,6815,-26,-4773,-497,-5791
378,6.365000269422128,88,-7128,7519,-3933,-2101,-3049,6358,5333,5455,-461,6136,245,1104,-71,-4029,2421,-1248
379,6.38225739820334,-51,-3260,3010,7804,-5797,-1855,-6266,565,2108,-5238,-2024,103,1543,46,-4643,-683,-5897
380,6.397349313914413,-51,-3260,3010,7804,-5797,-1855,-6266,565,2108,-5238,-2024,103,1543,46,-4643,-683,-5897
381,6.4128551988634666,-51,-3260,3010,7804,-5797,-1855,-6266,565,2108,-5238,-2024,103,1543,46,-4643,-683,-5897
382,6.428564647198138,38,-5868,3765,5233,-630,4879,7520,-684,-5467,-5780,6764,86,3284,-66,7150,7683,4987
383,6.444063689680449,-12,-7159,-3451,1001,1651,3795,5733,-4045,3089,2795,-703,236,-8032,64,-3639,-4304,3461
384,6.460731511013378,-12,-7159,-3451,1001,1651,3795,5733,-4045,3089,2795,-703,236,-8032,64,-3639,-4304,3461
385,6.480480152997556,-34,1024,-2418,4748,5748,-6373,258,-4307,1347,755,-6329,21,5453,-45,-3467,-6837,2164
386,6.497017112154017,125,4748,7605,4065,295,-7540,-8108,-5406,-2676,6741,1500,21,1780,139,-7637,3597,1026
387,6.512603396087306,125,4748,7605,4065,295,-7540,-8108,-5406,-2676,6741,1500,21,1780,139,-7637,3597,1026
388,6.529712128871019,31,-8091,1872,-5451,-265,3542,-2819,3296,2282,-6618,3047,238,-1656,-58,-7002,6949,2590
389,6.54672421181198,106,8054,183,7091,6957,7801,6028,-6609,1655,-6711,-5829,32,4582,30,3770,1405,296
390,6.563944562334444,106,8054,183,7091,6957,7801,6028,-6609,1655,-6711,-5829,32,4582,30,3770,1405,296
391,6.580323717101634,105,5994,1260,-7280,7293,-6986,-6565,4562,6048,-5221,-3407,57,7290,-63,-480,5726,5457
392,6.602325668915272,105,5994,1260,-7280,7293,-6986,-6565,4562,6048,-5221,-3407,57,7290,-63,-480,5726,5457
393,6.618391780828948,105,5994,1260,-7280,7293,-6986,-6565,4562,6048,-5221,-3407,57,7290,-63,-480,5726,5457
394,6.6340734316424745,105,5994,1260,-7280,7293,-6986,-6565,4562,6048,-5221,-3407,57,7290,-63,-480,5726,5457
395,6.649231633750125,-13,229,481,-1594,2331,-6235,3998,4814,-5105,6439,-7243,57,4006,27,1979,8041,5981
396,6.6650993141282395,130,6814,-5485,-3286,4220,-2729,-7230,-6464,-3306,-2197,-2792,118,-3277,148,-1823,-217,7962
397,6.683135201155693,-84,-5396,6287,2467,-5448,-1264,7121,5154,7359,4345,1767,118,992,112,-7834,-1811,7185
398,6.699209010844455,-9,-3644,6365,-863,-6397,-112,-5195,-448,-7928,-7670,-6541,118,3426,-49,16,5645,-2187
399,6.716705625961687,109,-7894,-5300,3909,-2567,-4117,4440,7164,3062,-6585,-3875,23,951,24,-6415,5487,5668
400,6.733121131333451,109,-7894,-5300,3909,-2567,-4117,4440,7164,3062,-6585,-3875,23,951,24,-6415,5487,5668
401,6.750302565326313,109,-7894,-5300,3909,-2567,-4117,4440,7164,3062,-6585,-3875,23,951,24,-6415,5487,5668
402,6.766830116091001,20,-7496,3743,3910,3989,-4741,-1487,-2353,3868,-8138,5451,116,-3678,2,1991,-3478,-2048
403,6.7841513929979325,-34,-6115,-5922,-4122,-2291,2050,3049,-1887,7556,1242,-3418,26,-2699,-83,1726,-3421,2552
404,6.799453714561368,53,-7994,6840,-7715,2235,-7350,5653,213,4131,7652,-2353,225,2833,-11,664,1568,-5144
405,6.815343205302227,-55,-1781,-2540,6789,755,-2314,5817,4543,7040,2698,-4876,225,7360,74,7819,-6552,3066
406,6.831067193878729,137,-4995,1142,7899,2870,-7526,6234,-1882,-6698,-1852,-2117,225,125,-73,-7911,-4564,8008
407,6.846672294595563,137,-4995,1142,7899,2870,-7526,6234,-1882,-6698,-1852,-2117,225,125,-73,-7911,-4564,8008
408,6.862628927041343,80,-1993,-2118,5108,-7391,5476,2520,-3106,7611,206,-708,224,4547,-71,7427,-1114,6047
409,6.878924689245096,80,-1993,-2118,5108,-7391,5476,2520,-3106,7611,206,-708,224,4547,-71,7427,-1114,6047
410,6.894583674387535,121,-2123,5151,-3909,-5422,6679,-6922,-6956,6734,1339,6402,224,27,-49,-6761,4410,2226
411,6.912392049395767,-38,-6196,-3419,2705,5754,7734,4013,-3322,2313,2735,-1555,224,-6322,6,5914,5560,2698
412,6.929096221333272,-38,-6196,-3419,2705,5754,7734,4013,-3322,2313,2735,-1555,224,-6322,6,5914,5560,2698
413,6.945671669365164,-38,-6196,-3419,2705,5754,7734,4013,-3322,2313,2735,-1555,224,-6322,6,5914,5560,2698
414,6.962924521604661,107,1264,4571,6869,621,3082,605,-6771,2957,3370,1684,224,-6043,-51,7394,-4263,7091
415,6.9798070253316675,-70,-4327,288,3944,-4880,-5150,-2502,7360,6059,7934,6452,112,1402,-47,6562,-2937,3835
416,6.9954108430859865,57,1850,-5884,-2250,-5368,6269,-2533,2836,-667,-1940,4063,90,-230,-57,3515,-5390,-3409
417,7.010693492557534,-100,5165,1625,1509,-7982,-7862,-5864,1408,4770,5569,8137,122,-196,67,7950,6307,-7528
418,7.025888472923931,-100,5165,1625,1509,-7982,-7862,-5864,1408,4770,5569,8137,122,-196,67,7950,6307,-7528
419,7.042513101185543,6,-4838,4775,-7783,5734,-4588,7475,-5133,7975,4975,1048,94,-8153,39,2929,-6717,2320
420,7.05858263433259,133,4661,305,7705,4243,7085,-1094,-2822,5926,-5992,-1541,97,-589,-87,2727,-774,-4566
421,7.0739371297049445,32,-886,5974,-5945,2900,2004,7552,6550,6101,-61,-977,31,-3762,98,-7617,-1179,4413
422,7.095170159318285,148,-6539,-7287,368,-7434,-1063,-6873,-20,2955,-5041,5259,31,4292,34,1439,6203,-5427
423,7.114282879549492,148,-6539,-7287,368,-7434,-1063,-6873,-20,2955,-5041,5259,31,4292,34,1439,6203,-5427
424,7.1320626017282365,52,-4834,-393,-4358,3111,2688,-1939,-3011,4161,5933,3947,90,-4206,113,-5231,1912,8190
425,7.148358791586161,52,-4834,-393,-4358,3111,2688,-1939,-3011,4161,5933,3947,90,-4206,113,-5231,1912,8190
426,7.165013783293946,55,2541,-6360,4721,-4879,4713,4678,-5832,1788,2563,-3407,248,-2012,58,-7472,-3841,512
427,7.182116956573429,55,2541,-6360,4721,-4879,4713,4678,-5832,1788,2563,-3407,248,-2012,58,-7472,-3841,512
428,7.198262612162998,44,6395,176,-6407,-3865,1867,64,-6159,-767,4630,-1136,248,3820,38,-3749,6448,7132
429,7.21454041289155,44,6395,176,-6407,-3865,1867,64,-6159,-767,4630,-1136,248,3820,38,-3749,6448,7132
430,7.23002491513203,96,-4173,-2838,1527,516,7857,-4174,6376,5527,3816,-4442,48,7355,50,-164,-6053,7847
431,7.246242844276576,73,-5206,4243,6411,-4638,-2713,3836,7946,2479,-4996,-853,48,2007,121,5815,-7035,-4067
432,7.26213062440075,121,-3897,-1964,-1411,-7402,-5446,-5133,583,-1443,2145,629,48,-7428,107,-7894,5117,566
433,7.278184761997624,-27,-1027,916,-2611,5290,-929,1625,7031,-8025,-7993,1936,32,-472,103,-7994,-6912,-2929
434,7.293904046378239,-27,-1027,916,-2611,5290,-929,1625,7031,-8025,-7993,1936,32,-472,103,-7994,-6912,-2929
435,7.312171721966628,-27,-1027,916,-2611,5290,-929,1625,7031,-8025,-7993,1936,32,-472,103,-7994,-6912,-2929
436,7.328445246153464,-27,-1027,916,-2611,5290,-929,1625,7031,-8025,-7993,1936,32,-472,103,-7994,-6912,-2929
437,7.345039510968902,117,3275,4556,-883,-298,-7886,-3445,5963,-622,-6531,-677,20,6681,-12,4311,-3853,-6466
438,7.362171764732045,-33,8128,-2961,1669,6588,-5090,2172,6874,-2931,4490,-6861,20,1837,-90,-7746,-4226,-4473
439,7.379437446596685,31,989,-2888,-4106,-2767,-6201,-1244,-4650,6213,-3441,4705,20,7114,-100,1491,4949,2753
440,7.39592308725257,31,989,-2888,-4106,-2767,-6201,-1244,-4650,6213,-3441,4705,20,7114,-100,1491,4949,2753
441,7.413344435235625,-1,3201,-1217,-7534,514,5458,4887,3360,2052,2899,-4140,20,-8109,-6,-2276,6086,-2045
442,7.428573200281567,-1,3201,-1217,-7534,514,5458,4887,3360,2052,2899,-4140,20,-8109,-6,-2276,6086,-2045
443,7.445426623524914,-1,3201,-1217,-7534,514,5458,4887,3360,2052,2899,-4140,20,-8109,-6,-2276,6086,-2045
444,7.462289027505861,-1,3201,-1217,-7534,514,5458,4887,3360,2052,2899,-4140,20,-8109,-6,-2276,6086,-2045
445,7.479823276190183,-1,3201,-1217,-7534,514,5458,4887,3360,2052,2899,-4140,20,-8109,-6,-2276,6086,-2045
446,7.4948856837634255,-1,3201,-1217,-7534,514,5458,4887,3360,2052,2899,-4140,20,-8109,-6,-2276,6086,-2045
447,7.5098048271892255,-1,3201,-1217,-7534,514,5458,4887,3360,2052,2899,-4140,20,-8109,-6,-2276,6086,-2045
448,7.526561600589821,-1,3201,-1217,-7534,514,5458,4887,3360,2052,2899,-4140,20,-8109,-6,-2276,6086,-2045
449,7.543531773421978,95,2185,4734,7895,-5352,-2701,-3191,4939,5623,4708,-1364,236,-1460,-53,-4821,-7023,312
450,7.560873577729139,95,2185,4734,7895,-5352,-2701,-3191,4939,5623,4708,-1364,236,-1460,-53,-4821,-7023,312
451,7.5780178058090835,95,2185,4734,7895,-5352,-2701,-3191,4939,5623,4708,-1364,236,-1460,-53,-4821,-7023,312
452,7.603603927233787,95,2185,4734,7895,-5352,-2701,-3191,4939,5623,4708,-1364,236,-1460,-53,-4821,-7023,312
453,7.621765972241823,43,1010,-5415,-6097,-3473,-1345,-652,-4034,4305,4305,-5101,241,6528,124,-8176,-7275,-6477
454,7.638708347552835,63,-1091,-5398,-12,7871,-7214,-3719,1706,3546,6082,-4690,96,1535,-36,-7207,-7155,6427
455,7.6546743883903865,63,-1091,-5398,-12,7871,-7214,-3719,1706,3546,6082,-4690,96,1535,-36,-7207,-7155,6427
456,7.669643567354249,-21,4282,2666,3137,-5249,2918,-6034,6396,2060,-7326,4818,45,-1452,-33,8027,-4838,4279
457,7.685194783645478,-21,4282,2666,3137,-5249,2918,-6034,6396,2060,-7326,4818,45,-1452,-33,8027,-4838,4279
458,7.701792469694287,37,5395,2129,-1936,7187,-4615,-7993,-2470,403,-4485,-3105,235,2604,64,3215,7493,-2070
459,7.718530426311338,37,5395,2129,-1936,7187,-4615,-7993,-2470,403,-4485,-3105,235,2604,64,3215,7493,-2070
460,7.735191405177524,-105,3310,-2313,1808,6851,4229,2258,7937,1249,2146,-5652,86,-3257,25,1209,-6526,-1125
461,7.753247819605207,30,-5953,2083,-7079,-5805,6589,-885,6589,-4592,3690,1112,97,-4038,4,-3111,-2672,2639
462,7.77071535423878,30,-5953,2083,-7079,-5805,6589,-885,6589,-4592,3690,1112,97,-4038,4,-3111,-2672,2639
463,7.788504057155125,10,-3043,1669,-2446,4780,-6270,-2778,-6603,-6282,7787,-921,52,-1375,126,-5327,5909,-1562
464,7.805558905513232,145,-5172,2781,-4626,463,-3014,898,6965,3903,5869,-7449,38,1045,-79,7789,6060,7821
465,7.824174263943023,-75,-6639,-1734,1608,1837,574,-2041,7530,-4024,1901,3233,59,6355,56,7623,7904,5609
466,7.840349855324594,-75,-6639,-1734,1608,1837,574,-2041,7530,-4024,1901,3233,59,6355,56,7623,7904,5609
467,7.855938705182912,-75,-6639,-1734,1608,1837,574,-2041,7530,-4024,1901,3233,59,6355,56,7623,7904,5609
468,7.871597690325351,-14,3190,-2964,-7568,2406,3873,-939,7774,-7453,-5651,1901,248,3070,78,-1977,6138,-763
469,7.887907992770934,40,-6420,6899,-7471,-6025,140,-4716,1504,3868,1945,3286,241,1394,-104,-2127,7263,5642
470,7.903431839195189,40,-6420,6899,-7471,-6025,140,-4716,1504,3868,1945,3286,241,1394,-104,-2127,7263,5642
471,7.91912375370883,-24,-1786,1694,-6936,-3653,-7170,21,-1504,-1125,-4040,7236,82,-7095,-101,-3630,-648,6678
472,7.934226360774191,-24,-1786,1694,-6936,-3653,-7170,21,-1504,-1125,-4040,7236,82,-7095,-101,-3630,-648,6678
473,7.952757471332203,101,5075,-2853,7025,-8033,92,-3161,-4807,-7726,6881,7174,113,-1932,-75,-6985,4477,1428
474,7.969542042253943,35,-5198,417,3137,2274,-4003,7237,4260,-7542,-2746,-5689,49,7264,55,-7697,-3527,-7430
475,7.988835232545509,67,855,7298,-4503,6395,-7870,-4148,-1098,-6377,-7856,3323,17,4728,-104,1681,-3958,-1375
476,8.00598715840054,-62,-382,4036,-6115,-6290,-1568,-96,-1823,-3799,-7697,2028,253,1276,-78,7786,-6282,-7829
477,8.022353911196756,-62,-5192,-2656,-1106,-6609,-4170,-1340,4766,-1348,1939,-7111,85,5718,97,1767,7011,6247
478,8.037866638612552,80,-6858,1232,-1848,-4938,-3263,-6614,1092,6444,3289,-2184,110,-808,105,2984,7442,3780
479,8.055366674963157,80,-6858,1232,-1848,-4938,-3263,-6614,1092,6444,3289,-2184,110,-808,105,2984,7442,3780
480,8.071765074168063,60,-2685,-2940,2027,-1183,7677,-4554,-5238,4929,-7890,1886,48,718,-74,7705,1536,4372
481,8.092263393914823,60,-2685,-2940,2027,-1183,7677,-4554,-5238,4929,-7890,1886,48,718,-74,7705,1536,4372
482,8.11061488972082,12,3696,-5567,-4441,3071,-5352,4116,-1911,3062,2008,-2078,97,2137,-28,-1893,-8155,7240
483,8.126726760630842,102,5765,-642,-1786,-559,-5639,7582,6515,3711,-4497,-6524,97,-6842,-8,-5478,-7841,2119
484,8.144498785034498,116,-6188,3516,7397,2070,4665,699,-6658,-3562,-3477,-5595,97,-3347,53,2061,-3635,879
485,8.162336668180563,116,-6188,3516,7397,2070,4665,699,-6658,-3562,-3477,-5595,97,-3347,53,2061,-3635,879
486,8.179506983164966,82,564,-531,5770,2807,7350,-6183,-7932,2688,1735,7664,97,3717,68,-4252,1711,7492
487,8.19698649211534,120,1934,-6209,-1762,-2279,5653,5791,-3008,-2515,-4094,-1737,52,3430,99,3706,-4275,4491
488,8.21459258670047,-21,-2530,-788,6116,4334,-3996,6669,5096,7730,2982,5231,26,-8125,77,7661,-1852,4644
489,8.231066253039552,-21,-2530,-788,6116,4334,-3996,6669,5096,7730,2982,5231,26,-8125,77,7661,-1852,4644
490,8.247275201446497,-92,7516,7268,-1341,-6814,129,-7636,2890,-8071,987,6134,244,1269,136,-4485,943,4825
491,8.263892987241366,-92,7516,7268,-1341,-6814,129,-7636,2890,-8071,987,6134,244,1269,136,-4485,943,4825
492,8.282463441983152,46,5774,4575,1943,-2852,-1404,1434,-2402,-88,8049,7104,26,316,-9,638,3190,-6356
493,8.298628342010437,-16,4752,-1400,-7474,2923,-1905,4424,-6487,931,-3783,5842,248,71,-85,-4187,511,-2286
494,8.31325668059964,-16,4752,-1400,-7474,2923,-1905,4424,-6487,931,-3783,5842,248,71,-85,-4187,511,-2286
495,8.329046100264376,-90,-576,-6497,4618,-4424,5681,666,-2628,-5274,2881,-7114,58,-2910,63,-4338,2190,3764
496,8.346847205151693,-90,-576,-6497,4618,-4424,5681,666,-2628,-5274,2881,-7114,58,-2910,63,-4338,2190,3764
497,8.362743110705125,-70,-6247,-3027,2791,7114,-3989,5349,2782,2344,6578,-1839,100,5674,16,2135,-3302,2144
498,8.380148207829663,4,4373,-5920,-6059,2666,-1005,568,-7392,-6979,-6653,3525,16,-3709,-43,2018,-1735,987
499,8.397066634507073,-91,-3260,-4917,-2377,4914,4418,320,-3383,3334,6977,1321,16,-1697,-44,-1282,1166,7602
500,8.413873015791557,-85,4056,7080,4919,-976,-7087,4620,1891,-5381,-6230,-1348,253,-6491,95,5099,6865,-2195
501,8.430495505782313,87,5685,-1427,7174,-4669,8006,-5613,-1953,-3698,5594,5915,253,-4668,84,-134,4431,7130
502,8.449365318444126,9,5765,6947,4210,1162,7227,-2762,4433,-5521,-7525,6068,34,7323,54,-6045,-3759,5707
503,8.467176687031559,-20,3747,7126,-1872,-4883,4122,-3274,-7918,1345,4596,306,106,-2066,55,-3743,1493,1269
504,8.48624407592059,29,-3217,596,2519,6119,1295,-3085,-5087,-7608,6449,-5905,247,-6377,-24,6340,848,-6316
505,8.502590301316577,-5,-1530,-1196,-3084,-2798,4191,-5340,3992,-515,7193,7661,58,-5481,-15,639,3101,-883
506,8.519876510581447,-5,-1530,-1196,-3084,-2798,4191,-5340,3992,-515,7193,7661,58,-5481,-15,639,3101,-883
507,8.537363289652736,42,5093,-7341,5478,-6939,-6952,-6805,6172,2026,-3369,-1758,46,3125,81,2609,1463,-2126
508,8.558077147101915,42,5093,-7341,5478,-6939,-6952,-6805,6172,2026,-3369,-1758,46,3125,81,2609,1463,-2126
509,8.577052590344081,-23,-2070,-7290,3156,-4327,-5296,2466,6655,-4696,3607,-5933,124,-1656,5,-6052,-7763,-6635
510,8.603583399833557,-26,-6730,-1583,-6596,5276,-233,-7345,3510,-8017,-2996,-5488,49,-3429,-8,6456,-5311,-3322
511,8.624426836496692,-86,4593,-3216,3056,-7818,-6326,-7637,-3380,-2750,2156,-6262,49,-1311,90,6425,7894,-3458
512,8.643454025893604,-86,4593,-3216,3056,-7818,-6326,-7637,-3380,-2750,2156,-6262,49,-1311,90,6425,7894,-3458
513,8.661424054178651,-97,-7759,6274,7898,1276,8133,-7693,5407,-4755,-4155,-3045,49,6903,34,5361,-3447,-6881
514,8.677551748293018,-75,4268,656,-4027,-6102,5120,2636,6464,6745,-4953,-7947,41,-1142,21,7750,7588,-241
515,8.69359049033972,-75,4268,656,-4027,-6102,5120,2636,6464,6745,-4953,-7947,41,-1142,21,7750,7588,-241
516,8.710123172954466,-75,4268,656,-4027,-6102,5120,2636,6464,6745,-4953,-7947,41,-1142,21,7750,7588,-241
517,8.725549514227627,-75,4268,656,-4027,-6102,5120,2636,6464,6745,-4953,-7947,41,-1142,21,7750,7588,-241
518,8.741293602550188,144,2151,3839,-1527,91,-4793,-1300,-4763,-1200,2986,-3897,117,3224,145,5082,-266,-5685
519,8.758318515116292,-19,7434,-2399,-5979,7807,-5871,2653,554,-2607,3285,1887,43,8054,4,7914,617,-2106
520,8.775712065578201,-19,7434,-2399,-5979,7807,-5871,2653,554,-2607,3285,1887,43,8054,4,7914,617,-2106
521,8.793296349800585,-69,-7271,-1271,-5939,-436,5068,7231,-6283,-121,7475,-3233,112,-1278,128,8180,-1598,-8165
522,8.8104410055347,105,3749,-1669,6715,7568,1294,4133,-5904,6240,7621,5020,91,-945,11,6183,2735,696
523,8.827405191208456,-87,7683,3753,2297,5550,1598,4698,-3574,8151,-7910,6410,91,5322,35,-3851,7024,-7023
524,8.843993468865493,-59,-1871,-5716,-3395,3806,-2641,5637,-5656,535,-5832,7238,94,-1081,84,1464,-4727,-7464
525,8.860478681867207,107,-1867,-3664,-7262,-2362,5522,-980,-4511,-2196,-4278,-7158,53,7763,35,-3238,7855,-1539
526,8.876954486477148,141,2287,7245,-8064,7803,7526,3096,-3057,-5131,-1789,2293,98,3180,100,-7813,372,-3105
527,8.89262929482393,107,-3376,2771,-1081,-984,-4860,-3922,-1122,-4725,-6499,-4006,52,7476,40,5016,1394,-217
528,8.909018285637064,107,-3376,2771,-1081,-984,-4860,-3922,-1122,-4725,-6499,-4006,52,7476,40,5016,1394,-217
529,8.924893236136093,107,-3376,2771,-1081,-984,-4860,-3922,-1122,-4725,-6499,-4006,52,7476,40,5016,1394,-217
530,8.94102392382966,-102,-7783,2221,-7111,6836,7643,-3860,-98,7803,-5057,2533,60,-4263,126,-3795,1462,2656
531,8.956182981245654,19,-6659,6830,-6139,-2685,156,539,4032,-159,1590,5698,227,7041,148,108,-8162,636
532,8.972429135565518,19,-6659,6830,-6139,-2685,156,539,4032,-159,1590,5698,227,7041,148,108,-8162,636
533,8.989928316607779,19,-6659,6830,-6139,-2685,156,539,4032,-159,1590,5698,227,7041,148,108,-8162,636
534,9.006634199161969,19,-6659,6830,-6139,-2685,156,539,4032,-159,1590,5698,227,7041,148,108,-8162,636
535,9.024077357507768,41,-3229,4529,2799,-2780,-7471,121,-4423,5582,-2312,-5607,24,-5381,-78,-2952,4736,-685
536,9.039642686386657,111,5928,-7321,726,-5708,3607,1151,1336,223,-7200,5011,24,-4585,121,5648,-393,-1213
537,9.057900098274928,-86,7246,-2186,-6286,3797,3710,-5256,-7958,-5429,6691,-2631,98,4156,66,4526,478,-5895
538,9.075651167624184,-94,1426,-1567,5298,5958,-6868,-4824,-1539,5477,243,7286,52,-3794,18,6532,460,4925
539,9.092462253104555,-94,1426,-1567,5298,5958,-6868,-4824,-1539,5477,243,7286,52,-3794,18,6532,460,4925
540,9.11243712414544,101,-614,5721,7292,3340,-6173,6436,5832,2716,6691,-7273,52,-4312,95,-5523,6125,-4895
541,9.131644783602713,-101,-5196,-3188,-6210,7483,7560,-7083,8010,1397,7964,4380,58,5139,117,-7150,-3887,4061
542,9.147385878346073,-92,-6862,5449,6373,-7359,-435,173,-2932,-5629,-429,2593,84,2984,8,-1738,-7484,-5770
543,9.163138519752064,-15,5370,1082,-6215,3550,4434,3993,3939,6721,-1609,-2229,40,-1410,95,8093,5250,2416
544,9.180998640915043,-15,5370,1082,-6215,3550,4434,3993,3939,6721,-1609,-2229,40,-1410,95,8093,5250,2416
545,9.198248499575339,3,6762,4167,3241,189,-5244,-4972,144,8111,1234,-3885,35,5540,128,3886,3901,-2887
546,9.215169064523606,3,6762,4167,3241,189,-5244,-4972,144,8111,1234,-3885,35,5540,128,3886,3901,-2887
547,9.231769744151615,3,6762,4167,3241,189,-5244,-4972,144,8111,1234,-3885,35,5540,128,3886,3901,-2887
548,9.249772274153694,-25,-6407,-2686,-2511,-2513,-6315,-241,3107,-3540,-2574,-4148,250,-3301,56,-5294,519,7099
549,9.267929614965844,-25,-6407,-2686,-2511,-2513,-6315,-241,3107,-3540,-2574,-4148,250,-3301,56,-5294,519,7099
550,9.287274979066328,93,-7812,7327,3959,-5001,5478,7127,-8084,-4789,-5574,-964,100,3827,46,-5593,-6384,-579
551,9.303186280169932,-40,1291,-4892,5766,4998,3791,4903,-6608,2771,1228,-1563,100,7114,52,-2855,-5178,211
552,9.318641274272581,-27,-8100,-6159,7133,-5002,3696,-145,-7437,-1175,6125,3609,34,-4020,-80,-6139,6632,-6913
553,9.334204892534784,-40,2923,-6619,6914,-4523,-5201,164,6437,1229,2917,-5774,43,3003,3,6448,2224,-2764
554,9.349993884545349,-40,2923,-6619,6914,-4523,-5201,164,6437,1229,2917,-5774,43,3003,3,6448,2224,-2764
555,9.366467550884432,139,-170,1460,-3447,-5885,-1216,-2362,-7460,-6414,1339,-6110,59,-178,111,5844,1973,6931
556,9.387024886906854,37,3831,-2873,-1936,-6835,7392,-2504,6521,4176,6223,-5940,59,-559,4,7868,-2467,-108
557,9.403775245494877,-102,-7176,-3367,7547,7560,-6555,2983,7500,-1905,8155,-2487,59,5294,-74,2965,6280,3402
558,9.421454896597497,57,-4415,-4120,-8162,3186,-4442,-224,-3609,1445,1981,6158,59,741,-64,-7813,1936,4487
559,9.437625356129011,57,-4415,-4120,-8162,3186,-4442,-224,-3609,1445,1981,6158,59,741,-64,-7813,1936,4487
560,9.457066514763905,-58,-3080,-2919,-6910,-103,6422,3975,-1891,30,3356,-749,37,963,55,-7026,-372,3821
561,9.474736757474753,-105,-1800,5122,7395,8187,-1789,3768,-3789,-4416,-3036,-6791,48,-3026,124,-1573,7835,4535
562,9.492707641068144,-48,500,-7377,-4366,2527,-2398,1087,7798,-3342,-5015,-3135,26,-527,-94,3695,3292,3111
563,9.508840894686738,-103,5527,4506,-504,8076,439,3158,-7410,-944,680,-5141,241,2481,-100,-9,2197,7084
564,9.525087904314946,-74,-1932,-5948,-5535,-1306,1024,1416,-6536,-7264,-8049,-208,53,-3619,-25,3744,-2979,-1360
565,9.541505975611738,-105,1283,-6516,-4888,30,4626,6553,1550,726,4686,-5283,123,4409,24,-2614,-676,-7199
566,9.55765590774302,147,4147,1737,-6486,-288,396,6024,-4500,-7256,-257,32,63,5849,132,-1630,-3957,1953
567,9.573290088943514,-95,-4155,891,6567,5520,-7553,-4892,4068,6240,-7152,-6105,41,-144,-70,-6736,-6042,-1808
568,9.58925698508941,-95,-4155,891,6567,5520,-7553,-4892,4068,6240,-7152,-6105,41,-144,-70,-6736,-6042,-1808
569,9.606130508078815,-95,-4155,891,6567,5520,-7553,-4892,4068,6240,-7152,-6105,41,-144,-70,-6736,-6042,-1808
570,9.632302515718429,15,7605,5685,7440,5974,-7950,6906,7261,1787,7207,1560,21,558,-26,-3589,-2534,5295
571,9.649126430823944,54,1574,7839,181,-3640,-5619,1384,2060,2091,5219,-2928,30,-7456,99,-2033,-4379,-936
572,9.665732242302012,144,2168,2893,3570,-3028,-1945,5146,-3598,-1616,7761,5830,58,-3820,-86,6151,-729,-6185
573,9.682886306427898,-75,1465,-7375,5566,-8184,419,5999,-5905,7990,-3173,5723,94,-7481,50,-627,-183,6899
574,9.70028627170238,-75,1465,-7375,5566,-8184,419,5999,-5905,7990,-3173,5723,94,-7481,50,-627,-183,6899
575,9.716847179492444,-75,1465,-7375,5566,-8184,419,5999,-5905,7990,-3173,5723,94,-7481,50,-627,-183,6899
576,9.732734959616616,30,-4723,-1231,-580,-1911,-5677,3322,-3134,6520,7225,-5220,94,-6165,-54,-6971,-4076,3655
577,9.748780544130062,49,226,2859,-1736,-4879,3233,-7147,-106,1422,-6723,-828,102,-7145,146,5247,-545,5695
578,9.764274027108142,49,226,2859,-1736,-4879,3233,-7147,-106,1422,-6723,-828,102,-7145,146,5247,-545,5695
579,9.780216546966264,-70,3235,-270,7507,1073,-2816,-4948,969,-897,-1982,-5107,238,-5510,41,-8029,-3469,6378
580,9.79509976744166,-70,3235,-270,7507,1073,-2816,-4948,969,-897,-1982,-5107,238,-5510,41,-8029,-3469,6378
581,9.813896451240154,-79,-1556,-6216,-5121,-2136,1539,1502,-1980,6080,-3007,1880,238,-6657,-76,7868,6568,784
582,9.830684871049439,110,-1410,2450,6128,-3638,-1199,-6700,-451,242,3501,7937,93,-5533,-80,-1706,-4931,645
583,9.84819046690427,59,172,369,5165,-2794,348,6850,-4131,-700,-5124,1885,241,5358,90,-2866,3129,-869
584,9.865525856398861,-77,5882,6399,5002,7,-2946,-4129,-4284,-2971,-4409,4132,241,7041,88,4606,-5623,2283
585,9.882021760754862,-77,5882,6399,5002,7,-2946,-4129,-4284,-2971,-4409,4132,241,7041,88,4606,-5623,2283
586,9.900193214154669,-101,7671,3735,-7428,-7271,5250,-5246,-2834,-1421,1040,4661,27,3738,-99,-7579,-2308,-2427
587,9.91890778835224,-101,7671,3735,-7428,-7271,5250,-5246,-2834,-1421,1040,4661,27,3738,-99,-7579,-2308,-2427
588,9.935530705997165,-101,7671,3735,-7428,-7271,5250,-5246,-2834,-1421,1040,4661,27,3738,-99,-7579,-2308,-2427
589,9.951120838817998,44,892,4018,-1778,612,-4623,4048,5009,1984,3413,-494,123,4416,35,-3580,414,-5897
590,9.966165712570211,44,892,4018,-1778,612,-4623,4048,5009,1984,3413,-494,123,4416,35,-3580,414,-5897
591,9.981940591993116,100,116,1284,6875,3465,-3160,-3758,-6770,-7098,6360,920,123,-5035,-28,-2698,6165,596
592,9.998296653435046,-104,5510,-5320,4704,2798,1650,1906,-2721,-6865,4344,-5686,119,-3387,-26,-7293,-6952,2323
593,10.013577164635738,116,-8007,5686,-6716,2420,2692,3921,-3496,6653,7114,128,82,-3841,117,-4270,-1180,-2578
594,10.030853537854664,116,-8007,5686,-6716,2420,2692,3921,-3496,6653,7114,128,82,-3841,117,-4270,-1180,-2578
595,10.046536471630706,116,-8007,5686,-6716,2420,2692,3921,-3496,6653,7114,128,82,-3841,117,-4270,-1180,-2578
596,10.06320899715952,116,-8007,5686,-6716,2420,2692,3921,-3496,6653,7114,128,82,-3841,117,-4270,-1180,-2578
597,10.080213809979567,0,2175,422,615,-947,-4623,3262,90,-6174,5455,-4542,52,5410,51,7498,-2416,-1602
598,10.09746537925655,0,2175,422,615,-947,-4623,3262,90,-6174,5455,-4542,52,5410,51,7498,-2416,-1602
599,10.123885426315614,-25,-7620,-3743,6246,6645,5258,-495,2706,-6556,-7345,2105,25,-6013,-106,-4272,6868,-6555
600,10.140980046511668,-25,-7620,-3743,6246,6645,5258,-495,2706,-6556,-7345,2105,25,-6013,-106,-4272,6868,-6555
601,10.156968753020308,-25,-7620,-3743,6246,6645,5258,-495,2706,-6556,-7345,2105,25,-6013,-106,-4272,6868,-6555
602,10.17278639786036,-11,7360,-4023,-297,6798,4622,3289,869,-1440,3096,5297,119,-933,95,-7212,2877,1127
603,10.18899620157565,-4,-6215,-3921,-2907,6855,32,-408,2037,699,-6404,5269,127,5612,-56,2802,7070,-4554
604,10.205199162824194,14,-2082,4515,7484,5512,-1297,3496,5468,7499,-7215,6656,127,5335,-1,-1956,-5376,2104
605,10.220933415100811,14,-2082,4515,7484,5512,-1297,3496,5468,7499,-7215,6656,127,5335,-1,-1956,-5376,2104
606,10.23658983431822,100,-5661,2799,2269,-836,-1636,-1836,3315,-5988,-5737,-2171,232,-7043,-45,4940,5433,330
607,10.256546316229732,-67,6854,3504,-449,5459,-5764,4742,776,-7594,221,-6839,232,1376,-26,-5911,6015,-2733
608,10.272957545059782,139,-5526,-2551,-4269,-2551,-4575,-2283,-6891,5014,3178,227,232,1727,-81,2447,-3950,1140
609,10.290996853320607,50,-2896,3098,-4011,-2870,1942,254,-7064,-2048,6578,3643,61,2060,97,7822,3972,7787
610,10.309047280589889,86,7613,-5657,-1593,-3412,-6226,6262,-7007,-6873,-7687,3638,85,5856,97,7113,-2832,-4566
611,10.326711963796509,86,7613,-5657,-1593,-3412,-6226,6262,-7007,-6873,-7687,3638,85,5856,97,7113,-2832,-4566
612,10.344477573387595,86,7613,-5657,-1593,-3412,-6226,6262,-7007,-6873,-7687,3638,85,5856,97,7113,-2832,-4566
613,10.36036278758674,-81,5222,7043,-7008,-4641,1216,5906,872,-1724,8160,-6639,243,140,68,5837,-4918,-2834
614,10.37643916320053,-81,5222,7043,-7008,-4641,1216,5906,872,-1724,8160,-6639,243,140,68,5837,-4918,-2834
615,10.391921099515981,52,4215,-3745,-3233,5378,-6731,-431,-6731,-4761,3098,712,87,-6048,-28,180,6317,-3460
616,10.408225842457336,126,-731,-6336,1704,-2038,-1023,-6362,-4087,4701,-1086,3085,109,-4762,-64,7832,3053,1150
617,10.424552823415606,119,7166,2285,575,3593,-236,3841,-1607,-4392,-4392,5966,240,3388,30,4881,-534,6140
618,10.442090065679128,67,-7266,-4023,4271,1095,6240,1447,397,-5439,-6060,4652,86,6735,43,4565,6534,-5607
619,10.460183686019729,146,3685,-6556,3863,5161,-3022,-3481,7637,-3260,5608,6570,22,6450,-63,4405,8020,7882
620,10.479850218402985,-6,-3431,7575,2033,975,6592,7601,1141,-277,6781,-7480,22,3358,-72,-5146,970,-6839
621,10.496751966567707,-6,-3431,7575,2033,975,6592,7601,1141,-277,6781,-7480,22,3358,-72,-5146,970,-6839
622,10.513536109835275,-6,-3431,7575,2033,975,6592,7601,1141,-277,6781,-7480,22,3358,-72,-5146,970,-6839
623,10.530958740780845,-6,-3431,7575,2033,975,6592,7601,1141,-277,6781,-7480,22,3358,-72,-5146,970,-6839
624,10.548711520746787,-6,-3431,7575,2033,975,6592,7601,1141,-277,6781,-7480,22,3358,-72,-5146,970,-6839
625,10.565892099431306,-6,-3431,7575,2033,975,6592,7601,1141,-277,6781,-7480,22,3358,-72,-5146,970,-6839
626,10.582139964367855,-6,-3431,7575,2033,975,6592,7601,1141,-277,6781,-7480,22,3358,-72,-5146,970,-6839
627,10.597644566354393,-6,-3431,7575,2033,975,6592,7601,1141,-277,6781,-7480,22,3358,-72,-5146,970,-6839
628,10.618186079172473,57,-3728,1369,-1117,3665,-6935,-565,2338,5087,4432,3052,33,1140,-96,4191,6477,5161
629,10.634825675330084,54,1294,-1041,-7157,-7567,-2553,-3471,1781,-4868,2845,-7200,33,-3045,-101,1365,2545,-384
630,10.650257148453303,99,1842,-2650,-2190,-6279,-3953,-2859,773,-7186,266,2712,35,-4443,111,-2125,1496,-4973
631,10.671411062044923,120,-790,-2856,-6690,2907,6044,-7997,-3354,6969,-3781,-5604,36,993,1,2494,2530,-1170
632,10.692920356253031,120,-790,-2856,-6690,2907,6044,-7997,-3354,6969,-3781,-5604,36,993,1,2494,2530,-1170
633,10.713192874597256,12,1565,5576,-5551,-371,5212,183,-3029,-5682,8075,-2373,34,-375,105,-6639,7448,-147
634,10.732674232724268,26,-5115,-8160,-4423,-471,-4909,2018,-4304,-5943,410,6790,252,2933,59,-288,6681,-4709
635,10.75233349498661,26,-5115,-8160,-4423,-471,-4909,2018,-4304,-5943,410,6790,252,2933,59,-288,6681,-4709
636,10.772447353633222,26,-5115,-8160,-4423,-471,-4909,2018,-4304,-5943,410,6790,252,2933,59,-288,6681,-4709
637,10.79055808014068,26,-5115,-8160,-4423,-471,-4909,2018,-4304,-5943,410,6790,252,2933,59,-288,6681,-4709
638,10.807177148898063,26,-5115,-8160,-4423,-471,-4909,2018,-4304,-5943,410,6790,252,2933,59,-288,6681,-4709
639,10.824801204958394,-104,-4203,-5390,6558,5047,6037,-1787,-433,2646,-5356,4626,252,-6317,122,-3928,373,1331
640,10.842688695988347,-104,-4203,-5390,6558,5047,6037,-1787,-433,2646,-5356,4626,252,-6317,122,-3928,373,1331
641,10.861122729049436,-64,-6150,-3484,-2554,-1192,-1759,4723,5381,6577,7029,-2135,252,3769,139,-2867,1383,4994
642,10.881012496910198,7,2920,-1351,2604,5461,-737,-1394,-4311,3670,-7724,5885,18,1590,70,6813,-2883,-3925
643,10.902348591178862,7,2920,-1351,2604,5461,-737,-1394,-4311,3670,-7724,5885,18,1590,70,6813,-2883,-3925
644,10.923097943924274,7,2920,-1351,2604,5461,-737,-1394,-4311,3670,-7724,5885,18,1590,70,6813,-2883,-3925
645,10.942980441664123,7,2920,-1351,2604,5461,-737,-1394,-4311,3670,-7724,5885,18,1590,70,6813,-2883,-3925
646,10.965087596403942,-89,-1565,1626,3468,2491,-5761,-2648,-1305,247,643,1919,18,4048,10,-2761,-3923,-5619
647,10.985405873744515,-89,-1565,1626,3468,2491,-5761,-2648,-1305,247,643,1919,18,4048,10,-2761,-3923,-5619
648,11.000848038222019,-25,-4752,3097,-3024,-6981,-7856,-8052,-8046,4860,4461,-1293,33,-3859,123,6767,7687,1097
649,11.016778156109169,-25,-4752,3097,-3024,-6981,-7856,-8052,-8046,4860,4461,-1293,33,-3859,123,6767,7687,1097
650,11.032883184552446,-25,-4752,3097,-3024,-6981,-7856,-8052,-8046,4860,4461,-1293,33,-3859,123,6767,7687,1097
651,11.04877395825582,134,-6343,5759,-5288,3682,5157,-2776,-519,4371,4525,3529,38,-1454,62,-2846,-4253,6892
652,11.064282409129904,-102,-2312,-4478,4204,-797,-2106,-3374,7481,-462,1298,1,111,-155,66,-831,6222,-2827
653,11.081226922711773,68,-4685,-5791,-3100,-6082,-304,6483,-115,158,1215,-3722,19,-1595,149,2790,441,611
654,11.099770007586585,-99,-6001,-3688,8065,-2280,-4369,6358,6954,3281,2051,6300,246,6159,-95,-4836,8062,-2661
655,11.123493267440379,113,-7632,-7578,686,512,4229,-719,8130,4190,-6792,-1807,36,-4197,9,-840,3504,4281
656,11.140190169256968,-95,-169,7813,7009,7967,-230,5173,-3028,634,4957,2299,36,-1854,117,-1966,3568,-1743
657,11.157777874712723,-96,-1670,-3074,-6627,-3339,5176,-5902,-6993,-4488,-3529,-1414,112,4988,98,-4330,-5936,-833
658,11.17530185969693,-96,-1670,-3074,-6627,-3339,5176,-5902,-6993,-4488,-3529,-1414,112,4988,98,-4330,-5936,-833
659,11.193235109723231,43,-5744,58,6411,3054,5991,699,-4127,-7980,-5029,383,91,-7739,53,970,-4961,-4547
660,11.209451755905263,147,-3456,-4008,1256,3325,4436,584,5270,-1651,-5507,-4753,108,-2630,-37,-3443,8057,-4122
661,11.225593134953117,-24,-3114,6939,-5326,5586,4150,-6798,-4562,4344,-6860,7268,86,-5575,111,1442,5140,324
662,11.240821044690716,-60,6056,-6330,-555,5038,-2915,4510,8127,2447,-3013,6812,236,-1306,108,2604,-7335,6608
663,11.256572403134191,1,3144,-6820,4949,-5465,522,7452,4746,-4460,5419,1308,242,-2139,-27,-4201,4782,-6042
664,11.271756692146303,133,-6465,1337,-5095,841,-1578,-5422,-1454,-2782,4511,2779,31,-5955,13,6793,8007,-5781
665,11.28961039849671,133,-6465,1337,-5095,841,-1578,-5422,-1454,-2782,4511,2779,31,-5955,13,6793,8007,-5781
666,11.307864816805782,-13,-4000,2925,6940,5969,-6198,-1503,3800,4861,-8148,6842,26,-1203,15,4393,7110,-7823
667,11.324910684426289,-16,7606,-6958,-4838,4842,-4776,4115,1029,-6216,6165,7867,228,-7167,-60,-3290,-5026,2343
668,11.340519634030667,41,3920,-130,1996,-7883,-2032,-3900,350,-7084,-6034,7023,228,-3929,102,7118,-2243,4841
669,11.378563749124378,-82,-5689,-7123,-789,-7492,-399,-7392,-6544,-597,-3071,1547,112,-2252,-50,728,-5728,4562
670,11.398223866695062,-82,-5689,-7123,-789,-7492,-399,-7392,-6544,-597,-3071,1547,112,-2252,-50,728,-5728,4562
671,11.418067447905306,81,-7674,-2938,1998,-1012,5944,-4755,3286,-8178,-5465,5373,96,5186,-25,1763,-5026,-3206
672,11.435224505610394,-59,2046,-3526,4632,-2585,-1945,4414,2008,-2796,-7602,-3274,112,-2886,8,-4383,7101,-754
673,11.45474178668781,-59,2046,-3526,4632,-2585,-1945,4414,2008,-2796,-7602,-3274,112,-2886,8,-4383,7101,-754
674,11.473827564706214,-59,2046,-3526,4632,-2585,-1945,4414,2008,-2796,-7602,-3274,112,-2886,8,-4383,7101,-754
675,11.49200414995608,-59,2046,-3526,4632,-2585,-1945,4414,2008,-2796,-7602,-3274,112,-2886,8,-4383,7101,-754
676,11.509933123440666,142,-5244,-2525,2383,-2873,-3590,5903,2828,-7912,-2437,-1875,235,-5891,39,5951,149,-5238
677,11.528531803357769,-33,-1519,-6058,3654,-689,7557,3448,-1333,3864,6428,3650,17,6246,148,-5558,-1025,863
678,11.544621008596705,-33,-1519,-6058,3654,-689,7557,3448,-1333,3864,6428,3650,17,6246,148,-5558,-1025,863
679,11.561831950727397,145,1738,-6887,-7231,339,-5803,-8188,-6545,-5181,2847,-2760,92,-6694,40,-3766,-6860,-5418
680,11.579673255106833,28,-7213,-3474,-6898,-780,6685,3326,7247,-5109,6981,-8150,89,-624,33,-3219,3359,-6229
681,11.597138651469548,28,-7213,-3474,-6898,-780,6685,3326,7247,-5109,6981,-8150,89,-624,33,-3219,3359,-6229
682,11.622311658964614,-44,5874,-3215,-1037,-3126,-3565,-6721,5503,-4966,-3745,-1472,231,7823,83,3155,-1307,7350
683,11.639612836125487,-30,-1526,2238,5101,-6914,5211,-4578,-1710,-5497,1042,5230,81,-4167,92,-7318,-6333,1849
684,11.655983437809248,-61,7603,2873,6844,-7670,-3698,-1865,-5413,-7780,2287,1880,83,1478,73,-8089,7386,-5007
685,11.671875494475136,-61,7603,2873,6844,-7670,-3698,-1865,-5413,-7780,2287,1880,83,1478,73,-8089,7386,-5007
686,11.687129491117195,-61,7603,2873,6844,-7670,-3698,-1865,-5413,-7780,2287,1880,83,1478,73,-8089,7386,-5007
687,11.702674292595852,-68,-4404,6580,1006,-4883,-2106,6431,-6642,-7936,6255,6387,22,6998,41,3951,-4214,-4657
688,11.719001273554122,-68,-4404,6580,1006,-4883,-2106,6431,-6642,-7936,6255,6387,22,6998,41,3951,-4214,-4657
689,11.735286344403589,105,-5130,-2802,3215,3121,1918,-937,-74,5083,2840,-6706,120,3159,42,-4407,1321,1998
690,11.753462929653455,27,1270,4828,-137,-4655,-4755,-4037,-6340,-3495,5170,-6367,120,7730,45,-6090,-3094,1213
691,11.769491408000041,27,1270,4828,-137,-4655,-4755,-4037,-6340,-3495,5170,-6367,120,7730,45,-6090,-3094,1213
692,11.786898643395437,-53,-2203,7501,-4535,360,-1237,4619,-5959,-1505,-4581,-5017,53,4893,2,7226,1513,-1989
693,11.804620204606861,57,-2927,965,7578,-3868,3012,752,3787,7140,3385,-7924,123,-2126,43,-7230,5451,1479
694,11.821420171078774,57,-2927,965,7578,-3868,3012,752,3787,7140,3385,-7924,123,-2126,43,-7230,5451,1479
695,11.837539739763884,-15,-4717,-7448,-3933,-4952,570,2828,-701,-2657,-1519,-5912,118,-5623,-13,2694,-2309,-5278
696,11.854981187492998,-15,-4717,-7448,-3933,-4952,570,2828,-701,-2657,-1519,-5912,118,-5623,-13,2694,-2309,-5278
697,11.871012231764613,33,6920,-5390,7738,6575,-3256,-4177,-2593,-4910,1998,6799,241,-4908,-82,-5046,4756,679
698,11.886579698914357,33,6920,-5390,7738,6575,-3256,-4177,-2593,-4910,1998,6799,241,-4908,-82,-5046,4756,679
699,11.901766981505668,33,6920,-5390,7738,6575,-3256,-4177,-2593,-4910,1998,6799,241,-4908,-82,-5046,4756,679
700,11.9171877632746,-102,-3186,-3871,4669,6881,5596,3181,4433,2255,4963,-7399,241,-6871,67,3285,-6356,5247
701,11.93345358968635,124,6147,-3451,-1601,-1856,1707,7538,-4647,7119,-7427,-3733,226,-1802,-87,-4483,3488,4042
702,11.981211013976594,-82,4299,-6287,-7957,-5105,2591,-5892,2220,-1079,8115,-4609,120,7252,-11,1129,5506,2943
703,12.002878112573974,79,4838,2171,-1194,2510,215,7949,-1054,-8130,-6114,5432,59,-4171,57,-1751,-6574,-5622
704,12.023750629720768,79,4838,2171,-1194,2510,215,7949,-1054,-8130,-6114,5432,59,-4171,57,-1751,-6574,-5622
705,12.041722796276671,-64,747,-3298,5866,92,2205,3700,-2777,-84,-3957,7175,123,3528,98,3426,-2039,-1711
706,12.060893677475198,141,-7799,-719,-5167,-482,6522,-6584,5400,-7713,-4835,382,123,-6973,140,2009,7630,756
707,12.07999057450206,141,-7799,-719,-5167,-482,6522,-6584,5400,-7713,-4835,382,123,-6973,140,2009,7630,756
708,12.096753762715228,141,-7799,-719,-5167,-482,6522,-6584,5400,-7713,-4835,382,123,-6973,140,2009,7630,756
709,12.115755292861854,115,-5074,7469,-802,-3374,6382,5065,7239,7584,-3252,6253,241,3072,-44,5811,-7075,6321
710,12.148050452928533,115,-5074,7469,-802,-3374,6382,5065,7239,7584,-3252,6253,241,3072,-44,5811,-7075,6321
711,12.16839353421105,71,1788,4376,-4675,1239,5935,-1155,7035,-6426,4520,3376,32,-4476,125,4196,-2742,-3201
712,12.190099976992206,71,1788,4376,-4675,1239,5935,-1155,7035,-6426,4520,3376,32,-4476,125,4196,-2742,-3201
713,12.210659023631314,71,1788,4376,-4675,1239,5935,-1155,7035,-6426,4520,3376,32,-4476,125,4196,-2742,-3201
714,12.231679509121436,98,-4378,-6609,677,-6674,7518,-1898,-7694,4833,2237,-7913,228,6346,-53,859,-7038,-3319
715,12.25145295504756,98,-4378,-6609,677,-6674,7518,-1898,-7694,4833,2237,-7913,228,6346,-53,859,-7038,-3319
716,12.26978264049081,98,-4378,-6609,677,-6674,7518,-1898,-7694,4833,2237,-7913,228,6346,-53,859,-7038,-3319
717,12.290579035195083,98,-4378,-6609,677,-6674,7518,-1898,-7694,4833,2237,-7913,228,6346,-53,859,-7038,-3319
718,12.309814919827673,11,3796,-3785,-1702,5069,-3273,-7895,-3522,784,-5013,4222,20,200,146,432,4430,-130
719,12.328958431159226,-22,1450,-7498,449,7541,-752,8068,-4652,-5787,6790,2883,58,-3623,31,4362,390,3208
720,12.351909775233521,-45,-2397,-6807,1652,-240,-6715,-1864,2576,587,-5463,3576,58,-4633,-103,-6455,4916,-5862
721,12.370695767677727,117,6162,-6623,-2596,6785,369,-4850,7396,1959,-786,3739,245,-5898,-22,4873,697,6408
722,12.39226193989064,-22,1596,2009,-4222,-7934,-3220,7726,5321,-3096,6659,-3410,108,-5788,128,1940,6831,6296
723,12.414282708487823,-22,1596,2009,-4222,-7934,-3220,7726,5321,-3096,6659,-3410,108,-5788,128,1940,6831,6296
724,12.436436905186504,-67,3412,-3766,-8171,-3638,7024,3964,-4425,1245,-8093,-7630,246,2925,105,-5503,-1583,-4271
725,12.456985688125497,-67,3412,-3766,-8171,-3638,7024,3964,-4425,1245,-8093,-7630,246,2925,105,-5503,-1583,-4271
726,12.47359620379945,45,-225,1742,-6402,7000,-676,3859,3848,-2525,-3909,-1878,236,-7582,-102,-7845,4147,2417
727,12.489751267780791,120,3923,2280,-65,-7548,4892,2695,-6586,-2530,-2950,4711,85,-2325,-80,-952,3449,5973
728,12.504923582476101,120,3923,2280,-65,-7548,4892,2695,-6586,-2530,-2950,4711,85,-2325,-80,-952,3449,5973
729,12.5209264015724,120,3923,2280,-65,-7548,4892,2695,-6586,-2530,-2950,4711,85,-2325,-80,-952,3449,5973
730,12.537399640257311,38,-2769,5005,3517,-6739,-4134,5359,5282,-6147,-5961,2363,85,-7365,14,100,-1540,-6269
731,12.552244371857276,38,-2769,5005,3517,-6739,-4134,5359,5282,-6147,-5961,2363,85,-7365,14,100,-1540,-6269
732,12.571449893043692,-79,6417,3263,1986,-620,-3210,680,3335,3937,-1067,-3795,255,263,-83,5629,5645,-153
733,12.58727780158386,40,2129,-7074,6348,7737,1759,4312,5911,-4287,-371,5987,102,-8013,-74,-7582,-8018,-4767
734,12.606290023084773,-32,-1569,-4295,2600,7168,-1812,-4260,-6647,3273,-5812,-3714,55,6583,-82,2977,6181,4830
735,12.623824699423265,-44,3931,4650,7919,4033,536,7422,6054,-2571,-1348,3309,55,-3024,122,1092,7749,7042
736,12.6416689973819,-44,3931,4650,7919,4033,536,7422,6054,-2571,-1348,3309,55,-3024,122,1092,7749,7042
737,12.668432450740655,116,5344,3543,-2632,-4670,-4300,3734,413,-1314,7779,-43,226,5843,-56,-73,5281,-5676
738,12.684572974480165,-17,6954,501,1664,-6428,4971,-2807,8160,2162,-4148,2283,86,-7949,36,986,-5266,4966
739,12.699903521218918,-17,6954,501,1664,-6428,4971,-2807,8160,2162,-4148,2283,86,-7949,36,986,-5266,4966
740,12.715399142467856,-17,6954,501,1664,-6428,4971,-2807,8160,2162,-4148,2283,86,-7949,36,986,-5266,4966
741,12.731710727875953,-40,-810,5032,-4464,629,7771,-4138,-6337,2274,7355,6501,39,4936,-37,645,4817,898
742,12.747340632534732,-40,-810,5032,-4464,629,7771,-4138,-6337,2274,7355,6501,39,4936,-37,645,4817,898
743,12.762485577363067,148,-5612,-5223,-4956,-518,-4119,5736,-3897,-5184,8132,-6488,27,5613,9,5389,1674,-3711
744,12.778376351066441,-81,-6137,-4869,7210,-6083,-4984,2192,8005,-5547,-7936,-2085,231,3969,-28,-5686,-5609,6663
745,12.795633907501824,104,-5178,-7307,-373,3484,-8172,-2211,184,-4339,5385,2693,58,-3259,47,-5703,-6934,-2700
746,12.812973573538128,104,-5178,-7307,-373,3484,-8172,-2211,184,-4339,5385,2693,58,-3259,47,-5703,-6934,-2700
747,12.830601478486,-15,-3292,-1559,2897,-2671,5702,-8136,-3572,-7936,5676,7060,237,-560,137,5810,3533,-7329
748,12.849210849757391,137,-384,5653,-7975,3896,771,6517,2828,3719,4152,1891,90,-8155,-58,-1110,3161,2490
749,12.866698911791195,137,1487,-7345,2870,1092,-6713,6047,-3156,239,-6062,-4780,250,2584,-101,-3737,-3844,-7724
750,12.884501727295198,92,1060,-4162,7891,-756,6991,-666,316,6543,-7215,1876,101,4642,45,6869,5149,4500
751,12.899983235956478,97,3824,7581,602,4070,-4576,-2011,-1594,680,-4244,-6909,101,4552,-3,-968,-7744,4713
752,12.915440795984157,-92,2712,7368,4451,4434,6406,-353,1860,6817,-1329,-4516,88,6472,51,-8046,-7049,-1588
753,12.93170149054585,-83,3864,-6583,7522,5890,1207,7439,1339,-1569,7063,-287,44,-1712,-94,2370,5715,5852
754,12.948090909013153,-100,-7578,-7839,-1437,6352,-267,3182,3680,7655,-4989,-5259,44,-6103,-45,-4298,-516,7581
755,12.963389381689046,39,-4745,-1758,4365,1610,-5720,7083,-2324,4808,-5164,-1477,44,183,62,-7102,8054,6883
756,12.980562690252649,39,-4745,-1758,4365,1610,-5720,7083,-2324,4808,-5164,-1477,44,183,62,-7102,8054,6883
757,12.998110196216286,30,-2165,-6539,-2876,7603,-4440,8027,-6591,-2588,177,2094,237,-228,-84,4700,-4428,1063
758,13.0157060271013,7,-1011,-4196,-7346,-6564,-5281,-2767,-6882,1892,1981,8023,244,-6809,77,-7822,742,-2090
759,13.033212905918647,7,-1011,-4196,-7346,-6564,-5281,-2767,-6882,1892,1981,8023,244,-6809,77,-7822,742,-2090
760,13.051279156392274,7,-1011,-4196,-7346,-6564,-5281,-2767,-6882,1892,1981,8023,244,-6809,77,-7822,742,-2090
761,13.0690007176037,84,-6793,-2553,3255,342,-1629,-7093,-2480,-7322,-2589,-1062,244,-1129,135,6832,-1472,-6602
762,13.085766899396067,130,4640,-2264,-1752,5301,-4869,-4334,773,6047,5621,-6158,113,-5193,143,-1865,-5892,859
763,13.101738499737849,130,4640,-2264,-1752,5301,-4869,-4334,773,6047,5621,-6158,113,-5193,143,-1865,-5892,859
764,13.117235831603471,130,4640,-2264,-1752,5301,-4869,-4334,773,6047,5621,-6158,113,-5193,143,-1865,-5892,859
765,13.134568227518862,129,2209,6537,-4587,-3752,-4642,8088,-5004,-7242,822,8190,237,-6453,12,-4354,-37,3975
766,13.153664269237382,-62,-3839,-3483,3510,-5914,2877,-1450,-7180,-4323,-2099,6700,18,-3051,49,2250,523,-650
767,13.172240283483397,-62,-3839,-3483,3510,-5914,2877,-1450,-7180,-4323,-2099,6700,18,-3051,49,2250,523,-650
768,13.187412170524535,-62,-3839,-3483,3510,-5914,2877,-1450,-7180,-4323,-2099,6700,18,-3051,49,2250,523,-650
769,13.203085695908804,-75,-7971,-786,-5945,3363,-4779,3942,-8152,5858,-6105,2100,48,-5978,141,-2639,1038,-3204
770,13.22177845974363,-75,-7971,-786,-5945,3363,-4779,3942,-8152,5858,-6105,2100,48,-5978,141,-2639,1038,-3204
771,13.23867978025418,-78,-21,1244,4476,228,-6103,2326,7898,-398,1949,1634,48,6421,-42,-5566,-538,-4860
772,13.256238405226275,-78,-21,1244,4476,228,-6103,2326,7898,-398,1949,1634,48,6421,-42,-5566,-538,-4860
773,13.273243645700493,-78,-21,1244,4476,228,-6103,2326,7898,-398,1949,1634,48,6421,-42,-5566,-538,-4860
774,13.293801409377087,125,7412,7222,-7244,-1294,4022,-6088,6564,-5352,4613,-4100,121,-5193,14,-5350,3878,7446
775,13.310978566828235,-26,-491,-571,5291,799,-201,-6075,5550,5751,-1840,-1681,232,-3453,67,1324,7631,-5897
776,13.32844096961175,-23,8179,5827,-4687,7248,501,-7733,7870,-1127,-3129,163,232,6988,18,3317,2137,-5951
777,13.344779924886822,-23,8179,5827,-4687,7248,501,-7733,7870,-1127,-3129,163,232,6988,18,3317,2137,-5951
778,13.361288231213793,-23,8179,5827,-4687,7248,501,-7733,7870,-1127,-3129,163,232,6988,18,3317,2137,-5951
779,13.377011364481952,-1,1140,4728,6250,-870,-6889,6158,-4797,-3977,-2961,5236,250,-7320,60,4723,1937,4560
780,13.392955167302588,36,5972,1700,-7148,429,1013,1752,5595,4908,-3522,4438,45,6277,10,7102,-6556,5735
781,13.409159839167819,36,5972,1700,-7148,429,1013,1752,5595,4908,-3522,4438,45,6277,10,7102,-6556,5735
782,13.42695880578428,36,5972,1700,-7148,429,1013,1752,5595,4908,-3522,4438,45,6277,10,7102,-6556,5735
783,13.445768746862088,36,5972,1700,-7148,429,1013,1752,5595,4908,-3522,4438,45,6277,10,7102,-6556,5735
784,13.466198214287243,36,5972,1700,-7148,429,1013,1752,5595,4908,-3522,4438,45,6277,10,7102,-6556,5735
785,13.484723337686853,-56,3561,4814,3542,7806,-6498,-5983,-5349,8019,-5966,-2190,52,-6644,-26,-7056,8036,-7490
786,13.504943682222159,-48,-6486,6814,4051,6681,-5216,-5579,7185,1681,-7993,-6520,114,2696,6,1035,5437,-6490
787,13.525204226249585,-20,5218,-1442,5887,-6119,2276,266,-8161,6250,-4906,7143,110,7884,25,1629,-4125,6788
788,13.542637976203611,-60,-3034,7515,6387,-5122,-7789,-4445,2912,-7712,-7260,-933,254,356,89,1795,3640,2417
789,13.56061698522626,8,-1112,4762,-1255,7661,-7176,-2393,3328,-1545,-6752,5081,246,221,119,-778,4872,612
790,13.577830920936153,71,-6756,-689,-6936,6355,-6111,2145,-654,-1978,-4115,7345,20,4329,108,-7163,5389,-218
791,13.593831174107422,70,2925,-3375,-353,-632,-565,3157,-2261,6932,6613,-898,41,-3141,-59,2902,-524,-3697
792,13.610165852840778,-86,-1556,397,6256,2492,6472,-7575,-7628,-1103,-7351,-5044,37,-2635,-91,-7791,-5962,-4416
793,13.626719062855754,111,-5221,-960,6823,1599,1260,3573,1821,-4990,5667,5939,86,8000,122,-7687,-7647,-5602
794,13.642914326329214,115,5601,-4140,2711,-8131,-7098,828,-5974,5181,-1240,-2230,241,-147,9,3004,-8061,-224
795,13.669532377269668,115,5601,-4140,2711,-8131,-7098,828,-5974,5181,-1240,-2230,241,-147,9,3004,-8061,-224
796,13.68716284814257,11,-5320,-4714,4412,7031,1893,-2569,1704,-3160,8063,2868,114,-1315,54,-3683,-6455,5851
797,13.70418348416696,11,-5320,-4714,4412,7031,1893,-2569,1704,-3160,8063,2868,114,-1315,54,-3683,-6455,5851
798,13.723150374325696,-71,-3378,-6230,-180,6871,6348,4592,-4684,4685,5576,159,48,-6636,119,-7356,5655,-3296
799,13.739923826238979,143,7799,2060,3628,6774,2987,-4251,672,6141,5828,6636,48,-7143,134,5012,7959,4816
800,13.757186086870247,-30,4219,5283,5150,-3298,-526,1919,8092,4268,7401,-6078,48,-7984,-5,6035,-7919,-714
801,13.772705229098616,105,1602,-1599,2644,-1788,-2578,2316,-525,1203,1425,209,48,-7007,-46,-6069,2697,-7231
802,13.7890245122818,143,4969,-6133,-5756,-193,122,-571,-5404,-5448,7062,-586,48,-8182,12,-5014,4336,-5108
803,13.805174872067255,136,8073,1648,-7728,-1681,-3303,-809,-3140,5475,8141,1405,27,4434,-102,4111,6757,3236
804,13.821187099555326,-62,4079,2984,5280,6269,-6681,-2199,-3608,-2342,-3014,-7397,101,3779,103,-1146,-4577,996
805,13.837514080513596,-62,4079,2984,5280,6269,-6681,-2199,-3608,-2342,-3014,-7397,101,3779,103,-1146,-4577,996
806,13.854202429246756,-62,4079,2984,5280,6269,-6681,-2199,-3608,-2342,-3014,-7397,101,3779,103,-1146,-4577,996
807,13.873437030916831,-62,4079,2984,5280,6269,-6681,-2199,-3608,-2342,-3014,-7397,101,3779,103,-1146,-4577,996
808,13.890002642902779,8,-4678,3994,4007,-1869,8093,-5374,-4050,-6462,7811,-309,30,3915,-13,-1619,7274,-3892
809,13.907680155734543,39,-4200,114,-3381,1848,-5348,-7690,-1338,1761,-4445,-2940,30,3921,99,-4893,2535,-2226
810,13.927704207005146,2,-1737,-6015,2584,-3173,1377,6790,1820,7661,-7481,3279,35,-1590,-15,-7926,1167,-3286
811,13.9444661122558,89,2834,3775,630,2102,-676,4763,-1079,-675,5900,6350,53,-5933,-27,-4905,-5764,3301
812,13.962721813527386,89,2834,3775,630,2102,-676,4763,-1079,-675,5900,6350,53,-5933,-27,-4905,-5764,3301
813,13.980691414158262,89,2834,3775,630,2102,-676,4763,-1079,-675,5900,6350,53,-5933,-27,-4905,-5764,3301
814,13.996925594161324,-100,2824,-3681,-5301,-95,-4189,-846,-7687,5468,1911,-2766,246,-6141,-100,3772,-7153,5144
815,14.0123741734514,-100,2824,-3681,-5301,-95,-4189,-846,-7687,5468,1911,-2766,246,-6141,-100,3772,-7153,5144
816,14.027312988969088,-100,2824,-3681,-5301,-95,-4189,-846,-7687,5468,1911,-2766,246,-6141,-100,3772,-7153,5144
817,14.042450663676508,137,-5125,4556,-3202,3107,790,1357,7138,3984,7050,4012,246,-2872,79,2206,3866,-5710
818,14.057389051540026,137,-5125,4556,-3202,3107,790,1357,7138,3984,7050,4012,246,-2872,79,2206,3866,-5710
819,14.073232355630367,137,-5125,4556,-3202,3107,790,1357,7138,3984,7050,4012,246,-2872,79,2206,3866,-5710
820,14.090905164266244,-102,6791,4856,5165,5360,-3180,-7658,-1781,4837,-814,444,86,-5922,-84,-3245,-2728,7579
821,14.107922806711434,-10,-6379,-1449,5801,1024,-3258,-6835,1669,3191,5816,2255,82,-6882,74,2818,-6498,3907
822,14.124946863969194,92,376,-1235,-977,-945,-4628,-5712,-4887,-6388,-6515,2306,24,7933,6,-3456,206,-3881
823,14.142099217478398,-54,6471,-424,603,1704,6518,5483,-3740,6812,8015,-5968,83,-4976,49,2839,1309,-5709
824,14.167678068782186,-54,6471,-424,603,1704,6518,5483,-3740,6812,8015,-5968,83,-4976,49,2839,1309,-5709
825,14.18495658027197,-50,-6296,-1859,1786,-1657,-4339,-2567,-307,-6052,-1488,-5635,232,-4250,110,4634,5808,-3345
826,14.201514494482833,-50,-6296,-1859,1786,-1657,-4339,-2567,-307,-6052,-1488,-5635,232,-4250,110,4634,5808,-3345
827,14.217568632079708,30,-3689,-2966,3193,4119,3933,233,-8192,-2372,172,6137,239,1404,-90,-5242,6595,6483
828,14.233349498661015,67,5537,-5501,-511,6532,-2791,1033,-3426,4654,-4391,-4497,41,6915,52,-6292,-3976,-92
829,14.249906129909363,-47,5005,-88,5231,1007,-1428,3611,-7511,3802,-4518,7958,41,5998,72,5590,-3978,-5477
830,14.265868749513544,-47,5005,-88,5231,1007,-1428,3611,-7511,3802,-4518,7958,41,5998,72,5590,-3978,-5477
831,14.28390848542854,61,-1675,-4740,-4017,-4621,-7174,6553,5462,-3910,-5088,-7906,42,-3638,73,-3838,3273,754
832,14.303985138162233,61,-1675,-4740,-4017,-4621,-7174,6553,5462,-3910,-5088,-7906,42,-3638,73,-3838,3273,754
833,14.324047678308268,35,-5931,-3762,-3351,-2033,5419,5047,6480,6981,3974,-363,32,-199,-91,361,-3918,5645
834,14.344070874270528,-42,5312,-266,-5456,-6965,6440,-5558,-135,-5195,1976,-906,87,-178,117,1548,1641,-2921
835,14.362834201043647,-68,-4965,3803,-1115,6031,3492,-2779,2628,-2989,4558,-4343,87,-2245,112,-2441,2340,-3046
836,14.382179565144133,-68,-4965,3803,-1115,6031,3492,-2779,2628,-2989,4558,-4343,87,-2245,112,-2441,2340,-3046
837,14.3986399742039,-68,-4965,3803,-1115,6031,3492,-2779,2628,-2989,4558,-4343,87,-2245,112,-2441,2340,-3046
838,14.415169235585275,-68,-4965,3803,-1115,6031,3492,-2779,2628,-2989,4558,-4343,87,-2245,112,-2441,2340,-3046
839,14.43173099868368,-68,-4965,3803,-1115,6031,3492,-2779,2628,-2989,4558,-4343,87,-2245,112,-2441,2340,-3046
840,14.447936525857255,12,-6423,2665,-3574,-2456,-7571,-5643,-2246,6560,7127,6431,124,-5827,8,-2299,-7533,-4555
841,14.464381967021021,-44,-6972,3153,1224,6326,6658,-2083,-814,489,-5525,-2956,97,-4595,98,-6966,-7496,-5105
842,14.480715362791864,69,228,472,4294,27,5827,-5233,-4042,-7674,-5277,5589,97,-6365,123,-4881,2259,-5927
843,14.499562509782589,-35,-866,4485,-53,-3431,-5262,7851,2155,-1032,-3751,-8004,97,-3158,-18,-1375,-3278,7911
844,14.516751213896367,-35,-866,4485,-53,-3431,-5262,7851,2155,-1032,-3751,-8004,97,-3158,-18,-1375,-3278,7911
845,14.534722525143927,-35,-866,4485,-53,-3431,-5262,7851,2155,-1032,-3751,-8004,97,-3158,-18,-1375,-3278,7911
846,14.552742161312864,-35,-866,4485,-53,-3431,-5262,7851,2155,-1032,-3751,-8004,97,-3158,-18,-1375,-3278,7911
847,14.57079943104889,36,-2171,-3871,2575,5034,-378,4567,550,3482,1929,-4829,235,-4404,64,4179,2111,5251
848,14.587823915960824,134,3821,3767,-1940,-5604,4915,-4376,5417,-7654,-6198,-4990,92,-7792,124,4721,-119,39
849,14.603711696084996,134,3821,3767,-1940,-5604,4915,-4376,5417,-7654,-6198,-4990,92,-7792,124,4721,-119,39
850,14.619955712134002,63,-2333,3866,-5917,5756,-6909,4305,-6978,3266,402,-2363,92,-4779,85,3075,7689,2165
851,14.63676252107266,8,-4103,-123,5125,-1089,258,4048,-6284,5558,-5423,7754,62,-4808,-28,2662,-5969,3801
852,14.657012801399969,-70,-7012,-3775,-6329,-5113,-1380,6534,-4098,-208,5840,5223,62,4249,30,5831,2157,-7163
853,14.67597199378362,-31,4127,4364,7810,2376,-3918,6545,3746,2821,-3298,-7806,100,7337,17,2467,1989,6755
854,14.691995340280148,-69,4065,1224,3504,4952,-6312,-646,4886,3528,-1363,-5103,100,2873,147,1760,-7436,-3725
855,14.71022623760979,-43,5013,-490,6524,5946,-8019,-6989,3655,2145,2277,-3831,100,6061,98,7677,-6956,-3309
856,14.727092062824108,-43,5013,-490,6524,5946,-8019,-6989,3655,2145,2277,-3831,100,6061,98,7677,-6956,-3309
857,14.743623890130511,96,561,4430,-1375,-5596,4924,-236,-2083,-8023,3652,-96,54,-7468,-78,-5808,-7245,-5298
858,14.760170685332916,95,5794,-4896,1493,-5420,7238,-4963,5,5866,1379,-1883,39,-7382,31,7886,4683,7950
859,14.777131022119129,95,5794,-4896,1493,-5420,7238,-4963,5,5866,1379,-1883,39,-7382,31,7886,4683,7950
860,14.795826779533156,95,5794,-4896,1493,-5420,7238,-4963,5,5866,1379,-1883,39,-7382,31,7886,4683,7950
861,14.813978560841075,101,-6853,-6537,-844,-64,-3003,7952,6585,1542,-5755,7610,91,-6028,16,4958,-764,-2137
862,14.830899981097685,-78,386,1409,4685,-6722,-5037,4057,-7758,6331,4656,895,99,2611,77,-5257,3781,5864
863,14.846706079275108,-92,420,-4849,-4984,5700,-2293,-7648,-1469,4924,2490,-1351,91,1090,126,-449,7414,7553
864,14.862477965118815,28,-939,-2274,4142,6636,-5818,-2951,3888,-987,-3522,3247,121,7922,7,-2967,6344,877
865,14.878641582183585,-37,7864,-4152,5386,-7985,-2000,6913,5284,630,5559,3106,37,6448,-99,6099,7709,7677
866,14.893961865222222,-37,7864,-4152,5386,-7985,-2000,6913,5284,630,5559,3106,37,6448,-99,6099,7709,7677
867,14.91200202879139,63,-525,-7539,-7913,7390,6736,-7341,6453,2479,5238,4155,37,-3391,7,884,-7723,-3240
868,14.930478827269624,-82,4223,7360,7494,-4508,-5211,-1894,2744,6822,-4483,1341,30,2127,148,7269,4118,-5027
869,14.94509005969197,15,7367,-6914,4812,5740,-5591,-5268,6004,-3580,3384,-2226,30,-3915,-95,-3793,-7750,7578
870,14.962517394833425,15,7367,-6914,4812,5740,-5591,-5268,6004,-3580,3384,-2226,30,-3915,-95,-3793,-7750,7578
871,14.982029544060781,122,-1949,1764,8006,7453,232,-8087,2858,-2047,-1462,-6444,114,-3589,76,2496,4475,-4393
872,15.001170489467306,122,-1949,1764,8006,7453,232,-8087,2858,-2047,-1462,-6444,114,-3589,76,2496,4475,-4393
873,15.017959764584932,122,-1949,1764,8006,7453,232,-8087,2858,-2047,-1462,-6444,114,-3589,76,2496,4475,-4393
874,15.033735499316181,142,-6843,4699,792,-6008,-2950,1384,-4593,4360,-546,-4617,246,-5656,-38,-5913,1734,-1373
875,15.050188210600863,20,1481,2985,4897,-5428,-5660,4680,7997,-2588,-7286,2619,113,-1738,-23,5743,952,2042
876,15.066578056722339,138,1233,-3382,-3780,5555,-4508,4782,6358,5074,-856,4439,112,-6392,-93,-6498,3151,-3171
877,15.083901899554299,138,1233,-3382,-3780,5555,-4508,4782,6358,5074,-856,4439,112,-6392,-93,-6498,3151,-3171
878,15.09873978868752,-76,553,3529,637,7008,-6295,-6805,4633,1753,-5099,-1455,112,-4955,51,3816,4817,7338
879,15.116858212970067,-64,-1583,4804,-1573,-7811,5991,-514,-4735,-435,3278,6306,24,2815,-50,708,-395,-2662
880,15.13556209581335,0,-4928,6902,2781,-961,6421,-618,4329,-1141,647,4191,248,2899,19,-7427,-2058,-3874
881,15.160079081809387,-95,-1707,7785,-759,7752,992,-1676,-8068,-7504,-700,6575,26,-3904,144,850,-3491,-7832
882,15.182135773356974,79,-4297,-2531,5689,-3628,-2485,-615,-2385,1160,2472,2177,102,1118,90,-20,-3609,-5993
883,15.200255480602035,-77,7905,-5435,7467,-5450,-6983,-7815,-2046,-6956,-3761,-2034,102,534,51,7523,-5396,2402
884,15.218379464388809,-77,7905,-5435,7467,-5450,-6983,-7815,-2046,-6956,-3761,-2034,102,534,51,7523,-5396,2402
885,15.234427614827283,109,947,-5217,-7705,5750,-2467,6373,4216,4946,7646,-5432,102,-2003,53,7425,1729,5861
886,15.25010071255738,109,947,-5217,-7705,5750,-2467,6373,4216,4946,7646,-5432,102,-2003,53,7425,1729,5861
887,15.266352854035643,109,947,-5217,-7705,5750,-2467,6373,4216,4946,7646,-5432,102,-2003,53,7425,1729,5861
888,15.282797012236896,123,-5818,-725,6266,6691,-4985,3045,-3203,6200,-3218,-4423,26,-6311,122,1257,1872,-7973
889,15.29862663139375,123,-5818,-725,6266,6691,-4985,3045,-3203,6200,-3218,-4423,26,-6311,122,1257,1872,-7973
890,15.316120680585955,123,-5818,-725,6266,6691,-4985,3045,-3203,6200,-3218,-4423,26,-6311,122,1257,1872,-7973
891,15.333703254191652,89,3203,-7758,4608,-4973,-247,-6898,552,7741,421,-4967,26,5115,90,-7127,-5825,4575
892,15.35034712689098,89,3203,-7758,4608,-4973,-247,-6898,552,7741,421,-4967,26,5115,90,-7127,-5825,4575
893,15.370531120821711,89,3203,-7758,4608,-4973,-247,-6898,552,7741,421,-4967,26,5115,90,-7127,-5825,4575
894,15.38904683582955,135,-6774,-7642,-3154,4536,-7832,93,8143,-5034,8157,7226,45,-3803,147,-5522,1964,4682
895,15.406444235179004,135,-6774,-7642,-3154,4536,-7832,93,8143,-5034,8157,7226,45,-3803,147,-5522,1964,4682
896,15.424104214189736,135,-6774,-7642,-3154,4536,-7832,93,8143,-5034,8157,7226,45,-3803,147,-5522,1964,4682
897,15.43970033416897,30,5353,-5837,-8037,-1365,6600,3794,-4035,-6663,-6263,-509,116,-4242,-92,976,-4973,7853
898,15.455804507303906,30,5353,-5837,-8037,-1365,6600,3794,-4035,-6663,-6263,-509,116,-4242,-92,976,-4973,7853
899,15.471311675215473,30,5353,-5837,-8037,-1365,6600,3794,-4035,-6663,-6263,-509,116,-4242,-92,976,-4973,7853
900,15.486885557177791,30,5353,-5837,-8037,-1365,6600,3794,-4035,-6663,-6263,-509,116,-4242,-92,976,-4973,7853
901,15.50272843361396,-83,-2713,-499,-1861,-7082,7768,-6328,-2730,-7189,1427,6686,230,-4248,99,-3154,4255,7095
902,15.521700027968583,134,4887,1658,-2836,1050,-5693,-1644,-8144,-2147,4976,-6416,241,6987,74,-1774,1613,-644
903,15.53674319110411,95,-5838,-5891,2093,2454,3698,7158,2663,-4611,-5501,-3551,54,-2624,95,-5011,-6880,-4086
904,15.553246365581023,-82,-6098,-5222,6189,-964,5739,-694,-3377,-1246,329,-2706,100,6145,64,-5993,-8162,7396
905,15.571993441495627,-38,-200,-7224,-4037,2044,3064,-7761,-1317,-6134,-2845,7138,248,2886,93,-5596,-798,-5758
906,15.589631610143615,-38,-200,-7224,-4037,2044,3064,-7761,-1317,-6134,-2845,7138,248,2886,93,-5596,-798,-5758
907,15.60650213955382,-73,-3865,-8182,-2598,6457,448,-7225,-850,-7900,5969,4986,248,-6762,22,-7651,-7224,-4974
908,15.624264755565704,-46,-2071,1216,-3281,205,2659,-1017,3623,7611,-2220,-6913,59,2760,-20,-1954,-1114,-2860
909,15.64170363736979,-46,-2071,1216,-3281,205,2659,-1017,3623,7611,-2220,-6913,59,2760,-20,-1954,-1114,-2860
910,15.66318727232761,-46,-2071,1216,-3281,205,2659,-1017,3623,7611,-2220,-6913,59,2760,-20,-1954,-1114,-2860
911,15.680711257311817,-46,-2071,1216,-3281,205,2659,-1017,3623,7611,-2220,-6913,59,2760,-20,-1954,-1114,-2860
912,15.696118781801433,-46,-2071,1216,-3281,205,2659,-1017,3623,7611,-2220,-6913,59,2760,-20,-1954,-1114,-2860
913,15.712947828757006,117,4028,-973,-923,6304,2954,-3546,-4200,-4354,5086,6943,54,-6286,-87,-3879,-2162,-3032
914,15.730859268420563,117,4028,-973,-923,6304,2954,-3546,-4200,-4354,5086,6943,54,-6286,-87,-3879,-2162,-3032
915,15.747146905195057,-87,-687,3806,-3283,6711,-5929,6633,14,6537,-5106,-385,30,-3439,115,3435,1935,593
916,15.764324490300377,-87,-687,3806,-3283,6711,-5929,6633,14,6537,-5106,-385,30,-3439,115,3435,1935,593
917,15.784241200373941,-87,-687,3806,-3283,6711,-5929,6633,14,6537,-5106,-385,30,-3439,115,3435,1935,593
918,15.801595406652075,-87,-687,3806,-3283,6711,-5929,6633,14,6537,-5106,-385,30,-3439,115,3435,1935,593
919,15.82011539820163,-105,590,5478,-5000,-7379,6942,3867,3477,2780,1469,-7952,103,-2287,134,-7766,4699,-7158
920,15.837589775301945,-105,590,5478,-5000,-7379,6942,3867,3477,2780,1469,-7952,103,-2287,134,-7766,4699,-7158
921,15.854274702801733,-20,-3622,3875,2440,-4190,7977,-1803,-66,1435,-657,6064,103,5660,-1,-5303,4058,658
922,15.870183010326137,-20,-3622,3875,2440,-4190,7977,-1803,-66,1435,-657,6064,103,5660,-1,-5303,4058,658
923,15.886550618430697,-48,-348,544,7253,-5669,4023,2929,-7359,-4875,4443,2934,24,-7382,76,2087,3966,5136
924,15.902783943125417,-48,-348,544,7253,-5669,4023,2929,-7359,-4875,4443,2934,24,-7382,76,2087,3966,5136
925,15.922923888676488,-48,-348,544,7253,-5669,4023,2929,-7359,-4875,4443,2934,24,-7382,76,2087,3966,5136
926,15.939256001484816,-92,-4803,-4019,1235,4694,-5383,-185,-329,-3054,2289,5785,53,6923,-44,-2089,7753,-815
927,15.95657257419586,-3,-576,1712,-2199,-6552,2121,2013,1024,-7245,905,-6446,92,4442,98,-5236,1075,-2772
928,15.974869757922079,135,-5324,-1491,-1491,-3128,-5656,-7958,7802,3173,6726,1221,92,-8009,38,-6546,-263,7243
929,15.992828667198669,111,-6022,3414,6268,7896,-147,1337,-7986,4171,-7642,3539,116,6950,-35,-3219,662,-7891
930,16.00925486392472,111,-6022,3414,6268,7896,-147,1337,-7986,4171,-7642,3539,116,6950,-35,-3219,662,-7891
931,16.02642475125495,43,-1565,2840,7921,-1496,-6400,-3378,-6791,170,1740,-890,96,3013,-1,997,4713,2665
932,16.0436288509189,97,-627,2178,-730,-2878,6739,4497,-756,5706,2233,2296,120,-2956,-88,1037,3003,6409
933,16.059508505613817,61,-5988,-3951,-473,862,-245,2864,-3594,-5400,-5814,3442,124,-1695,95,4422,-2574,7135
934,16.074872409377942,-25,4790,4832,-5172,5428,-3658,-7978,5320,-3777,-7434,-1723,22,-7726,-9,-6788,7297,-733
935,16.09054593476221,101,5990,-3199,-1946,-4570,-2527,998,6001,7566,-4945,3533,229,695,-56,4615,-3287,-869
936,16.106687741464235,101,5990,-3199,-1946,-4570,-2527,998,6001,7566,-4945,3533,229,695,-56,4615,-3287,-869
937,16.12506703479138,101,5990,-3199,-1946,-4570,-2527,998,6001,7566,-4945,3533,229,695,-56,4615,-3287,-869
938,16.141769496112197,-71,3149,-1894,-5413,4832,3078,-217,-438,7787,-940,2202,57,-6507,127,832,6713,-5549
939,16.165554338166682,-87,-5015,6382,1535,292,-6528,-1254,-2417,5610,2113,4985,57,6425,-100,-3417,2021,-1360
940,16.189857924731154,-87,-5015,6382,1535,292,-6528,-1254,-2417,5610,2113,4985,57,6425,-100,-3417,2021,-1360
941,16.21072146114035,-23,2678,227,-1188,794,3867,-7034,-1042,1325,6366,-6933,39,-2096,-6,7241,-4043,-6869
942,16.236609506410108,-23,2678,227,-1188,794,3867,-7034,-1042,1325,6366,-6933,39,-2096,-6,7241,-4043,-6869
943,16.25326364280955,-23,2678,227,-1188,794,3867,-7034,-1042,1325,6366,-6933,39,-2096,-6,7241,-4043,-6869
944,16.26964279757674,54,-7692,-433,-4032,7898,7431,-2470,-4382,7145,-7037,1433,85,-5306,-29,1058,8002,-934
945,16.284912617423146,54,-7692,-433,-4032,7898,7431,-2470,-4382,7145,-7037,1433,85,-5306,-29,1058,8002,-934
946,16.301960623314507,-68,-7886,3608,4715,6582,4846,-4737,-3735,1064,-879,-4582,123,2442,8,5052,7381,-1663
947,16.319989240221044,-61,923,3203,1326,-7711,7148,2379,-7918,-3943,1221,-4292,123,-3156,56,2853,4617,118
948,16.33683325507262,-61,923,3203,1326,-7711,7148,2379,-7918,-3943,1221,-4292,123,-3156,56,2853,4617,118
949,16.35314227455569,4,3789,3115,3024,-1693,-2210,2742,-1214,3776,1481,7225,123,-4154,72,1352,-7619,490
950,16.37088607378403,-40,248,4252,6284,-710,-516,2408,-3251,-7528,5152,5364,19,-2698,127,3286,7177,-3993
951,16.38860079252871,-40,248,4252,6284,-710,-516,2408,-3251,-7528,5152,5364,19,-2698,127,3286,7177,-3993
952,16.405339604454102,-40,248,4252,6284,-710,-516,2408,-3251,-7528,5152,5364,19,-2698,127,3286,7177,-3993
953,16.422800296620935,43,4162,-5295,-3121,271,7239,6787,4199,4031,-5472,4756,54,5293,54,-3604,6066,-2605
954,16.438993849477708,43,4162,-5295,-3121,271,7239,6787,4199,4031,-5472,4756,54,5293,54,-3604,6066,-2605
955,16.454737082491924,27,-1053,-4112,8110,-172,-7625,-5669,-3770,-8028,-4104,-7994,82,2844,46,-7608,-4961,1586
956,16.46993206285832,27,-1053,-4112,8110,-172,-7625,-5669,-3770,-8028,-4104,-7994,82,2844,46,-7608,-4961,1586
957,16.487046355146262,27,-1053,-4112,8110,-172,-7625,-5669,-3770,-8028,-4104,-7994,82,2844,46,-7608,-4961,1586
958,16.504510896200635,27,-1053,-4112,8110,-172,-7625,-5669,-3770,-8028,-4104,-7994,82,2844,46,-7608,-4961,1586
959,16.521610648246746,-18,4814,-4868,3495,-228,7207,-4404,-5767,629,-2324,1522,255,7208,-1,1775,6215,-8083
960,16.539065780909347,-18,4814,-4868,3495,-228,7207,-4404,-5767,629,-2324,1522,255,7208,-1,1775,6215,-8083
961,16.556994754393934,-69,-541,452,-3331,-8035,5990,7991,1445,-7028,1726,4268,255,1753,-47,-500,-3229,6429
962,16.575007548096128,-69,-541,452,-3331,-8035,5990,7991,1445,-7028,1726,4268,255,1753,-47,-500,-3229,6429
963,16.59173224743386,-69,-541,452,-3331,-8035,5990,7991,1445,-7028,1726,4268,255,1753,-47,-500,-3229,6429
964,16.608392370991705,-69,-541,452,-3331,-8035,5990,7991,1445,-7028,1726,4268,255,1753,-47,-500,-3229,6429
965,16.626285849180057,-69,-541,452,-3331,-8035,5990,7991,1445,-7028,1726,4268,255,1753,-47,-500,-3229,6429
966,16.642633785192732,-88,4931,-6474,-2139,6623,-7048,-2120,7197,-905,-1742,743,255,-6732,63,4547,81,947
967,16.65882947632036,-34,-987,7525,-4753,1974,-3114,3843,324,-2167,6864,341,17,-7802,47,6777,4710,-2920
968,16.681250101567866,4,5697,-3520,-1463,-7184,3752,1571,-7832,-4902,-3721,1666,91,4715,-46,-6351,-5175,3312
969,16.69943780582619,119,3532,-4805,3036,-7203,4268,7643,1156,-7156,2422,7603,113,-165,-88,3539,4025,-1553
970,16.717062289540692,-83,1630,-2258,-4396,6976,-5578,-4533,-3748,77,-1684,7558,245,-4286,-44,-856,4070,-575
971,16.736500026942213,-83,1630,-2258,-4396,6976,-5578,-4533,-3748,77,-1684,7558,245,-4286,-44,-856,4070,-575
972,16.753612180959298,145,4887,6226,-2289,-7806,-5209,-5273,-3640,7392,5818,8173,245,-1953,-56,-5229,6723,-4490
973,16.771995323173982,100,-2672,-4352,-3838,677,-5515,3082,1313,4041,3299,4909,96,-1921,101,2730,2190,5750
974,16.79120212732291,-3,7390,1085,233,4262,-607,-6475,3772,-1918,-4877,7889,118,-396,-44,-5884,8034,-4835
975,16.80897800061411,-82,-5513,-6254,7660,6821,2776,-5768,2833,-4586,-6336,5721,92,-6490,110,-5406,-8110,5026
976,16.82569500217676,-82,-5513,-6254,7660,6821,2776,-5768,2833,-4586,-6336,5721,92,-6490,110,-5406,-8110,5026
977,16.84315312841856,-5,-3083,360,4783,-2226,-2996,1809,-2228,6960,-5234,1054,86,577,63,1327,-6910,5282
978,16.859750386813197,63,-6175,3474,-2336,6748,2065,-7419,5335,4620,2823,-7577,31,338,64,-1415,6972,-3886
979,16.875461118110383,41,6862,211,8003,-3353,-1528,-2212,-6709,4494,-7688,2103,50,-4108,42,3552,7648,-69
980,16.89183343041083,41,6862,211,8003,-3353,-1528,-2212,-6709,4494,-7688,2103,50,-4108,42,3552,7648,-69
981,16.9073825084312,41,6862,211,8003,-3353,-1528,-2212,-6709,4494,-7688,2103,50,-4108,42,3552,7648,-69
982,16.92576051879583,68,-862,3148,-7955,-1445,4927,3247,-6841,-4343,-3465,-714,235,-675,125,1085,-3682,5249
983,16.942850862450168,77,-5571,-6475,-7251,-4950,-1183,-4368,189,5939,-7793,4114,92,-3240,-26,94,-1267,-7441
984,16.961375985849777,131,-7742,-7572,1347,-1264,5048,-7052,2274,-392,853,535,233,-1954,-2,-1555,-6873,5852
985,16.979439242744206,104,-2681,5129,2128,-7279,-6624,6033,7570,-1265,-5157,6117,20,-2750,92,1731,-5968,3190
986,16.997278836506954,-52,-4810,1623,-6498,5630,-7104,-1578,-1517,-1386,3537,4370,107,-7753,75,5415,-3809,-2551
987,17.015879227040745,-52,-4810,1623,-6498,5630,-7104,-1578,-1517,-1386,3537,4370,107,-7753,75,5415,-3809,-2551
988,17.03342117350015,-52,-4810,1623,-6498,5630,-7104,-1578,-1517,-1386,3537,4370,107,-7753,75,5415,-3809,-2551
989,17.049637392028014,42,2398,-5653,-5397,-4078,7598,-6272,233,-6072,3063,4142,107,-5667,-88,-1244,8074,-3245
990,17.065301936674683,-97,2151,6837,400,-1641,2255,7019,4538,854,-146,8010,89,-678,-65,-7869,-4771,7281
991,17.081927420244636,-24,2486,2123,3276,-377,1669,-1688,-6077,132,4649,7297,253,5886,24,554,5814,6073
992,17.099036153028347,10,-4153,-5563,7707,-4360,1235,-1907,1224,1837,-6667,7100,63,-3268,71,-4910,6206,4648
993,17.11601658956062,-57,-2103,5544,3845,6061,5270,-6851,252,-8132,701,7917,109,7903,114,-1961,3422,419
994,17.132491111208047,53,517,6892,-3601,-2236,-6713,7328,-3178,6158,-4875,3603,114,6274,-103,-6445,6716,-3932
995,17.156894768848645,-14,4064,-6785,6480,5528,-288,5521,812,7358,2050,4725,44,4914,12,1262,-6533,-4966
996,17.180887878484633,-51,-6478,-1379,-1590,4402,4228,-3961,-665,5119,7704,-1873,96,1828,7,-2224,-887,6801
997,17.219223226069115,-51,-6478,-1379,-1590,4402,4228,-3961,-665,5119,7704,-1873,96,1828,7,-2224,-887,6801
998,17.240741073360653,-51,-6478,-1379,-1590,4402,4228,-3961,-665,5119,7704,-1873,96,1828,7,-2224,-887,6801
999,17.260983655912874,29,-7275,4139,5873,-4444,7172,4651,-3035,-423,-4835,4409,238,-6541,68,-6504,-2785,-2178
1000,17.281558525756328,-48,-1159,-473,5689,-4605,-2336,-5414,-2307,-6050,6321,3020,41,-1643,77,3282,7896,-6721
1001,17.30174551326626,-48,-1159,-473,5689,-4605,-2336,-5414,-2307,-6050,6321,3020,41,-1643,77,3282,7896,-6721
1002,17.322032999506487,-48,-1159,-473,5689,-4605,-2336,-5414,-2307,-6050,6321,3020,41,-1643,77,3282,7896,-6721
1003,17.353755958291742,31,6990,8129,770,1264,-4560,-4886,7864,-2136,4847,-1204,238,-6992,38,-7260,3074,6939
1004,17.380621193343305,108,20,-7759,5001,-1561,3997,7321,-7219,-614,-1097,6718,43,560,39,-3810,-2744,3046
1005,17.398378677505136,-30,-204,6462,6569,-6569,-3779,-1887,1159,-2501,7180,-7790,112,7829,91,-3877,1358,-3752
1006,17.41715355094088,143,-2054,-3842,-7003,1431,2054,8183,-5632,694,5138,3494,112,-1835,43,-331,7935,-1428
1007,17.435898060930455,-48,4105,-7950,-3953,6591,-3849,-423,1967,4469,5309,7496,35,8157,41,-7281,5707,4626
1008,17.456346772793324,-35,3427,3847,-8143,-4359,1179,-5893,7828,-4693,6731,-5939,35,-402,54,-279,2406,-6609
1009,17.47592563607143,-35,3427,3847,-8143,-4359,1179,-5893,7828,-4693,6731,-5939,35,-402,54,-279,2406,-6609
1010,17.494066726025064,36,5588,-7411,-2983,-7863,-2847,6617,2279,345,3089,-5900,101,-5062,-72,-4259,-697,1491
1011,17.5115753154591,48,1797,8171,1516,-4526,-1332,1402,-4280,-3661,3958,-943,57,7538,-8,-3440,2034,-994
1012,17.529589392123807,-89,4495,-5823,5613,-992,-4999,-5266,-706,7365,-5598,4297,57,-3203,132,-6792,5203,-470
1013,17.54691066903074,57,1618,4355,4258,-7259,-1697,2022,-3689,-5670,-7434,-4197,58,2994,9,-4894,-2877,155
1014,17.565597873361337,-14,5372,-6404,5037,-2551,241,7950,-4515,-6834,-2082,2563,25,3796,-35,5476,7515,6020
1015,17.582116015734254,44,-4809,2842,-1617,6527,7528,-2667,583,-475,4818,7505,124,-4512,-39,4196,-2674,-6485
1016,17.601038002204984,106,-3403,-3179,-5726,-3977,1738,4896,6961,-6977,-2682,6002,124,-7347,13,-4953,-4102,-3133
1017,17.61833062628243,-50,2020,3460,5254,71,2947,-1877,-7919,-3677,4726,1644,253,-6640,107,-3809,-3403,1862
1018,17.636968222729134,-50,2020,3460,5254,71,2947,-1877,-7919,-3677,4726,1644,253,-6640,107,-3809,-3403,1862
1019,17.654277952973437,-2,-5910,-7731,-4051,6628,-3180,1139,-5898,2578,-8189,-6089,34,-1113,-44,-906,-4207,-5644
1020,17.670825175830014,13,-2798,-4399,3760,4685,-1699,1150,1098,5214,-24,-3718,233,-510,-30,1431,-7464,-1216
1021,17.689731766750572,121,4513,-3020,7546,-2454,-6976,-4159,-4076,5636,-6030,-6459,247,2106,123,-4638,2071,3250
1022,17.710687676460804,67,-526,3283,6319,6105,-5412,2059,3564,6248,3604,1821,88,-526,87,2470,-2453,2837
1023,17.726248728797977,67,-526,3283,6319,6105,-5412,2059,3564,6248,3604,1821,88,-526,87,2470,-2453,2837
1024,17.7431684384379,-29,-2098,-2388,7734,3553,-2959,7866,-1653,-6930,6326,-7948,47,5876,111,7740,-2421,5888
1025,17.761392065646625,103,-3178,-477,1561,7895,-4101,-5812,3254,7960,23,-2032,47,6805,-69,2589,-7945,2560
1026,17.77828910961546,103,-3178,-477,1561,7895,-4101,-5812,3254,7960,23,-2032,47,6805,-69,2589,-7945,2560
1027,17.794723004116598,135,-1257,-2026,-3130,3940,3129,5419,2498,4765,3419,-3642,26,2252,-15,5788,-5243,-3842
1028,17.81175860803699,-57,4906,-1688,-1771,5750,6136,-5198,393,2780,-213,-99,26,7004,-55,224,-6117,6028
1029,17.82966491585049,-57,4906,-1688,-1771,5750,6136,-5198,393,2780,-213,-99,26,7004,-55,224,-6117,6028
1030,17.848091678790663,-57,4906,-1688,-1771,5750,6136,-5198,393,2780,-213,-99,26,7004,-55,224,-6117,6028
1031,17.86557845786195,-61,952,-7079,-7161,530,4358,1841,-142,-4832,-978,-880,224,-3720,56,-383,-3248,-1037
1032,17.881498739703158,-57,2962,969,-5176,3459,864,7042,2961,-5745,-4069,273,34,-3361,-31,-5860,4115,-6920
1033,17.896601774422688,72,6097,7349,811,-3551,3382,1058,-3881,-1960,-1647,-6456,119,3833,-64,-7296,-7457,-7858
1034,17.912912932176614,62,6798,-4332,7339,-1689,8175,-6251,-7995,1506,5325,-6476,96,-1372,-34,7889,4556,1970
1035,17.929397717524157,106,1213,8065,1011,-3098,3720,-1075,-2480,-4558,5137,4244,109,-6003,-23,-5467,955,-6686
1036,17.945818354745978,106,1213,8065,1011,-3098,3720,-1075,-2480,-4558,5137,4244,109,-6003,-23,-5467,955,-6686
1037,17.965091017637313,106,1213,8065,1011,-3098,3720,-1075,-2480,-4558,5137,4244,109,-6003,-23,-5467,955,-6686
1038,17.982485423407567,147,-1471,-3541,1774,6353,-3871,-5219,-6296,-7713,7045,1683,34,4433,47,-733,6033,-6133
1039,18.00088267820991,-22,-5029,2258,3445,2851,1912,3417,-3753,-2693,-7993,-700,18,-7260,-26,-1053,-5662,6121
1040,18.019459120110096,-22,-5029,2258,3445,2851,1912,3417,-3753,-2693,-7993,-700,18,-7260,-26,-1053,-5662,6121
1041,18.036852670572003,-22,-5029,2258,3445,2851,1912,3417,-3753,-2693,-7993,-700,18,-7260,-26,-1053,-5662,6121
1042,18.05423381906294,-39,6484,-463,3467,6160,6977,7763,-92,4201,2756,722,24,8051,-5,-7434,-6199,-1130
1043,18.070840485849352,-39,6484,-463,3467,6160,6977,7763,-92,4201,2756,722,24,8051,-5,-7434,-6199,-1130
1044,18.087369747230724,117,2954,-7241,-640,4484,1804,-1424,-6221,-7757,-3605,-161,118,-1212,91,7460,-6082,-140
1045,18.103993947838166,117,2954,-7241,-640,4484,1804,-1424,-6221,-7757,-3605,-161,118,-1212,91,7460,-6082,-140
1046,18.120600186970403,117,2954,-7241,-640,4484,1804,-1424,-6221,-7757,-3605,-161,118,-1212,91,7460,-6082,-140
1047,18.136767652922718,39,2884,3906,6123,-1263,-358,2817,4840,6945,-571,-2658,103,7873,101,-7076,-7275,-3813
1048,18.153562487544573,-91,-6130,7592,5703,1880,-1583,-8015,-5323,2380,-6970,-500,225,-4942,-78,4455,690,7165
1049,18.175632436371473,-91,-6130,7592,5703,1880,-1583,-8015,-5323,2380,-6970,-500,225,-4942,-78,4455,690,7165
1050,18.20574356658447,129,1651,-489,-3776,-4959,-4064,-1879,4627,3866,-2112,6733,63,-1052,-47,-4496,4345,-5283
1051,18.222444744942777,129,1651,-489,-3776,-4959,-4064,-1879,4627,3866,-2112,6733,63,-1052,-47,-4496,4345,-5283
1052,18.24129231958767,69,5903,7369,-4699,-1604,1310,19,2232,2644,2321,-5839,122,-2711,121,5903,-4694,-495
1053,18.26066804713433,133,-4942,-7696,-6120,6801,8076,-302,-1969,4257,3168,2212,233,-5205,-14,3610,2701,-3444
1054,18.277651904899976,31,-6756,-1608,-612,6718,-5675,6088,832,-6988,-990,-613,63,-7722,-92,-2390,1447,5502
1055,18.29542521226615,31,-6756,-1608,-612,6718,-5675,6088,832,-6988,-990,-613,63,-7722,-92,-2390,1447,5502
1056,18.310449558618128,31,-6756,-1608,-612,6718,-5675,6088,832,-6988,-990,-613,63,-7722,-92,-2390,1447,5502
1057,18.326118807460684,-76,-6524,4817,5431,4461,-8078,-1401,7530,3134,-6984,242,63,6530,-20,-4361,7803,4148
1058,18.342207157391275,145,4478,-6446,-780,-6532,2962,5653,590,6312,-452,-1675,16,-7423,115,-6360,-3431,1857
1059,18.358741122968535,-8,-6395,-4277,-6405,5018,3378,-126,1813,7069,-6512,-4121,248,-1781,-56,4547,2369,5793
1060,18.378479073598427,12,-7591,-1234,-1022,7357,3562,4459,-5528,4498,1128,-7624,28,-6401,145,-6537,-4361,5921
1061,18.39615615877602,66,-5969,2317,8138,-3646,-7012,5181,1666,-2104,7954,-5781,124,6978,100,4317,6336,-2500
1062,18.413120344449776,66,-5969,2317,8138,-3646,-7012,5181,1666,-2104,7954,-5781,124,6978,100,4317,6336,-2500
1063,18.431059153980307,66,-5969,2317,8138,-3646,-7012,5181,1666,-2104,7954,-5781,124,6978,100,4317,6336,-2500
1064,18.45119182941046,66,-5969,2317,8138,-3646,-7012,5181,1666,-2104,7954,-5781,124,6978,100,4317,6336,-2500
1065,18.469980815433868,66,-5969,2317,8138,-3646,-7012,5181,1666,-2104,7954,-5781,124,6978,100,4317,6336,-2500
1066,18.49004506619659,1,-1536,-6537,-5603,-3018,556,-8037,-8000,1131,5525,4127,125,85,31,5196,1322,-4132
1067,18.508632199451064,1,-1536,-6537,-5603,-3018,556,-8037,-8000,1131,5525,4127,125,85,31,5196,1322,-4132
1068,18.52613907826841,48,7779,5630,1441,4493,3657,-7885,-1975,-2237,5672,4533,125,-520,-104,-6174,1853,-5985
1069,18.544362705477138,19,-4202,-3739,2364,238,1445,-5711,4961,-5307,4762,-4081,60,-3748,-31,7179,-1638,6685
1070,18.561138723315448,19,-4202,-3739,2364,238,1445,-5711,4961,-5307,4762,-4081,60,-3748,-31,7179,-1638,6685
1071,18.587424914618843,-96,3977,3606,3125,1819,-6147,-6354,5577,-302,4651,7317,60,2623,121,5027,-4840,3210
1072,18.60596030171857,-96,3977,3606,3125,1819,-6147,-6354,5577,-302,4651,7317,60,2623,121,5027,-4840,3210
1073,18.62874315004931,143,-1900,4208,6753,-5799,6760,6536,-7301,6555,1112,4241,242,-4766,102,-2497,1445,4933
1074,18.64804104453676,143,-1900,4208,6753,-5799,6760,6536,-7301,6555,1112,4241,242,-4766,102,-2497,1445,4933
1075,18.665494894236847,143,-1900,4208,6753,-5799,6760,6536,-7301,6555,1112,4241,242,-4766,102,-2497,1445,4933
1076,18.683228857419245,143,-1900,4208,6753,-5799,6760,6536,-7301,6555,1112,4241,242,-4766,102,-2497,1445,4933
1077,18.708610560149985,70,2493,-505,-2614,-280,3617,-7589,2778,5881,-2861,2145,242,4811,86,5078,4547,3111
1078,18.72924957811916,65,3861,-2354,-2083,-1975,6058,739,5027,-4383,3541,-1246,96,-7407,-49,7449,-2210,-1954
1079,18.74837769390054,65,3861,-2354,-2083,-1975,6058,739,5027,-4383,3541,-1246,96,-7407,-49,7449,-2210,-1954
1080,18.767262046804184,-21,-2371,-4462,-7139,6887,-3528,5847,-2951,-3096,4297,7775,42,3638,-90,5631,-5752,7274
1081,18.78936492500229,90,2580,4515,-7092,7926,6590,6604,-6472,6535,-6701,6874,38,7669,71,981,-3348,6487
1082,18.808529819042413,-76,-6340,2105,3247,-708,2125,4696,-3892,3845,-2637,-1482,95,1823,-66,-4172,-3343,-3870
1083,18.82977354001004,-3,7234,3274,-1960,-926,-8174,-4741,2312,6874,322,3878,121,-2198,-80,-3034,-4690,-6832
1084,18.852289104483614,-3,7234,3274,-1960,-926,-8174,-4741,2312,6874,322,3878,121,-2198,-80,-3034,-4690,-6832
1085,18.876760759137472,-3,7234,3274,-1960,-926,-8174,-4741,2312,6874,322,3878,121,-2198,-80,-3034,-4690,-6832
1086,18.896942187143175,-3,7234,3274,-1960,-926,-8174,-4741,2312,6874,322,3878,121,-2198,-80,-3034,-4690,-6832
1087,18.914918630240795,-3,7234,3274,-1960,-926,-8174,-4741,2312,6874,322,3878,121,-2198,-80,-3034,-4690,-6832
1088,18.93540027147487,145,396,7469,958,-3850,-6606,4105,5095,-6766,8133,4537,122,6940,139,-437,-866,4065
1089,18.95403017014649,145,396,7469,958,-3850,-6606,4105,5095,-6766,8133,4537,122,6940,139,-437,-866,4065
1090,18.972171260100122,145,396,7469,958,-3850,-6606,4105,5095,-6766,8133,4537,122,6940,139,-437,-866,4065
1091,18.99013615653511,-54,3423,-2923,2912,-5611,-7871,7106,6465,-5250,3502,2785,105,1833,-11,-1175,-2118,29
1092,19.00600854110911,112,1723,5116,-884,4996,2856,2183,-3869,3997,-2120,138,105,3814,4,4167,8135,7092
1093,19.02272810859679,112,1723,5116,-884,4996,2856,2183,-3869,3997,-2120,138,105,3814,4,4167,8135,7092
1094,19.038222874537386,37,3306,3868,-2524,-2440,-5825,-6737,1180,-618,-2586,-519,105,-2256,-42,6311,-6997,-4213
1095,19.053083001687522,37,3306,3868,-2524,-2440,-5825,-6737,1180,-618,-2586,-519,105,-2256,-42,6311,-6997,-4213
1096,19.069084110167136,37,3306,3868,-2524,-2440,-5825,-6737,1180,-618,-2586,-519,105,-2256,-42,6311,-6997,-4213
1097,19.084996694233254,37,3306,3868,-2524,-2440,-5825,-6737,1180,-618,-2586,-519,105,-2256,-42,6311,-6997,-4213
1098,19.099838859908193,-2,-3653,3602,4649,4307,6663,568,-6833,2724,6211,-1539,52,-2618,3,3845,-6144,-1809
1099,19.11449798959774,-13,-4142,7312,6685,-3617,5432,-5820,-2201,6024,6945,1238,52,-2614,-6,8092,-3618,2775
1100,19.13011378166886,137,-4060,2935,2091,4281,-7062,7638,5343,-4891,-1525,5192,96,-6537,14,2415,-7065,3204
1101,19.146930854307634,-43,-1543,-4468,704,-1774,4774,-7254,4864,6032,-6478,3363,46,-6167,86,-1539,-2532,-500
1102,19.16311970296852,-103,6208,295,-7211,-1729,-4666,-3701,-2426,4048,-4088,1982,113,312,-51,-755,5950,4810
1103,19.178534925233222,46,7184,-2157,5813,2154,-6688,1166,6051,4969,-4664,-7735,113,5967,141,-5106,1751,2202
1104,19.20261228274099,46,7184,-2157,5813,2154,-6688,1166,6051,4969,-4664,-7735,113,5967,141,-5106,1751,2202
1105,19.21945886351759,46,7184,-2157,5813,2154,-6688,1166,6051,4969,-4664,-7735,113,5967,141,-5106,1751,2202
1106,19.237211643483533,46,7184,-2157,5813,2154,-6688,1166,6051,4969,-4664,-7735,113,5967,141,-5106,1751,2202
1107,19.25296642316038,137,4234,2503,5836,6424,-4052,6008,2339,-6165,1612,-2746,237,3479,-2,-6691,4454,-728
1108,19.26998705918477,145,3609,1198,2062,5994,-8068,-2952,-744,-1434,8104,2807,116,-2571,82,-3487,5191,-6534
1109,19.286887952041152,55,7326,-5155,2282,6259,-5004,-3194,2770,-3260,6942,7425,86,-267,86,4999,-7003,7706
